Time(sec)	Force(kgf)	LGauge(mm)	Strain	Stress(MPa)	Stroke(mm)	TC1(C)
0.00000	-137.86	-0.16354	-0.011225	-17.013	0.10823	35.504
1.00000	-137.79	-0.0071256	-0.00048734	-17.194	0.10858	35.492
2.00000	-137.7	-0.00041851	-2.6207e-05	-17.2	0.10808	35.459
3.00000	-137.85	-0.00022644	-1.2463e-05	-17.216	0.10992	35.423
4.00000	-137.83	-0.0002112	-1.3853e-05	-17.208	0.1092	35.407
5.00000	-137.63	-0.00024463	-1.5357e-05	-17.188	0.10746	35.384
6.00000	-137.57	-0.00029355	-1.6313e-05	-17.174	0.10762	35.334
7.00000	-137.57	-0.00034143	-2.1151e-05	-17.182	0.10822	35.272
8.00000	-139.02	-0.00013769	-9.1407e-06	-17.36	0.10944	35.321
9.00000	-145.8	-0.00037334	-2.584e-05	-18.199	0.10924	36.68
10.00000	-155.07	-0.00015485	-9.4909e-06	-19.358	0.10993	41.503
11.00000	-163.67	0.00022366	1.6336e-05	-20.445	0.11108	48.648
12.00000	-170.42	0.00057722	3.7754e-05	-21.279	0.11196	56.29
13.00000	-174.87	0.0010104	6.6383e-05	-21.837	0.11239	63.213
14.00000	-178.29	0.0013461	8.8597e-05	-22.26	0.11263	69.079
15.00000	-181.46	0.0017882	0.00011654	-22.659	0.11205	73.805
15.52460	-183.12	0.0020733	0.00013626	-22.866	0.1112	76.061
16.52460	-186.02	0.0029419	0.00019467	-23.234	0.11128	80.344
17.52460	-189.08	0.0038511	0.00025414	-23.623	0.11166	85.16
18.52460	-191.42	0.0049077	0.00032511	-23.912	0.11068	90.362
19.52460	-192.57	0.0066424	0.00044063	-24.055	0.11046	95.707
19.64330	-192.83	0.0068353	0.00045432	-24.09	0.11057	96.335
20.64330	-193.63	0.0088097	0.00058696	-24.193	0.11149	101.52
21.64330	-194.44	0.010706	0.00071297	-24.292	0.11292	106.57
22.64330	-194.96	0.012885	0.00085978	-24.364	0.11245	111.45
23.64330	-195.76	0.015127	0.001009	-24.467	0.11309	116.3
24.64330	-196.22	0.01741	0.0011608	-24.531	0.11162	121.22
25.64330	-196.55	0.019829	0.001321	-24.578	0.11148	125.99
26.64330	-196.99	0.022569	0.0015054	-24.635	0.1114	130.8
27.64330	-197.53	0.025157	0.0016773	-24.709	0.11132	135.97
28.64330	-198.15	0.027948	0.0018644	-24.784	0.10992	141.12
29.64330	-198.56	0.030532	0.0020346	-24.841	0.11117	146.3
30.64330	-198.83	0.033095	0.0022057	-24.882	0.1088	151.31
31.64330	-199.31	0.035947	0.0023963	-24.951	0.10922	156.17
32.64330	-199.52	0.038695	0.0025777	-24.973	0.10855	161.29
33.64330	-199.79	0.041594	0.0027682	-25.009	0.10788	166.45
34.64330	-199.97	0.044345	0.0029514	-25.046	0.10784	171.62
35.64330	-200.13	0.047013	0.0031293	-25.069	0.1073	176.59
36.64330	-200.33	0.049838	0.0033182	-25.092	0.10752	181.47
37.64330	-200.43	0.052682	0.0035049	-25.111	0.10615	186.26
38.64330	-200.37	0.055685	0.003703	-25.113	0.10695	191.04
39.64330	-200.48	0.058787	0.0039104	-25.131	0.10622	195.8
40.64330	-200.6	0.062251	0.0041382	-25.157	0.10498	200.68
41.64330	-200.87	0.065741	0.0043704	-25.191	0.1054	205.84
42.64330	-200.77	0.069145	0.0045969	-25.186	0.1058	211.08
43.64330	-200.85	0.072204	0.0047994	-25.205	0.10534	216.39
44.64330	-201.15	0.075266	0.0050025	-25.242	0.10431	221.5
45.64330	-201.22	0.078468	0.005218	-25.254	0.10444	226.56
46.64330	-201.34	0.081616	0.0054265	-25.272	0.10389	231.39
47.64330	-201.19	0.085067	0.005655	-25.26	0.10342	236.24
48.64330	-201.16	0.088736	0.0059008	-25.267	0.10247	241.21
49.64330	-201.35	0.092229	0.0061303	-25.301	0.10247	246.31
50.64330	-201.48	0.095753	0.0063642	-25.316	0.10273	251.4
51.64330	-201.55	0.099185	0.0065917	-25.332	0.10292	256.46
52.64330	-201.53	0.10264	0.0068207	-25.342	0.10283	261.35
53.64330	-201.65	0.10594	0.0070407	-25.361	0.10397	266.35
54.64330	-201.85	0.10934	0.007265	-25.387	0.10417	271.41
55.64330	-201.99	0.11286	0.0074969	-25.414	0.1038	276.35
56.53930	-201.94	0.11578	0.0076913	-25.412	0.10298	280.85
57.53930	-201.96	0.11918	0.0079167	-25.42	0.10226	285.65
58.53930	-202.15	0.12291	0.0081632	-25.449	0.10274	290.63
58.77690	-202.05	0.12374	0.0082178	-25.436	0.1021	291.8
59.77690	-202.37	0.12728	0.00845	-25.488	0.10162	296.91
60.77690	-202.54	0.13063	0.0086713	-25.514	0.10231	302.04
61.77690	-202.72	0.13403	0.0088961	-25.536	0.10204	307.19
62.77690	-202.72	0.13704	0.0090935	-25.542	0.10313	312.23
63.77690	-202.71	0.14	0.0092892	-25.548	0.10273	316.99
64.77690	-202.85	0.14333	0.0095095	-25.572	0.1027	321.74
65.77690	-202.94	0.14707	0.0097558	-25.594	0.10207	326.57
66.77690	-203.03	0.15099	0.010014	-25.607	0.10361	331.61
67.77690	-203.14	0.15476	0.010262	-25.622	0.10185	336.89
68.77690	-203.25	0.15827	0.010493	-25.645	0.10314	342.06
69.77690	-203.28	0.16178	0.010727	-25.658	0.10265	347.14
70.77690	-203.44	0.16531	0.010957	-25.686	0.10281	352.19
71.77690	-203.57	0.16884	0.011191	-25.704	0.10304	357.26
72.77690	-203.54	0.17197	0.011401	-25.705	0.10303	362.19
73.77690	-203.75	0.1754	0.011625	-25.735	0.10337	367.05
74.77690	-203.83	0.17884	0.011853	-25.757	0.10258	372.07
75.77690	-203.79	0.1824	0.01209	-25.757	0.10222	376.91
76.77690	-204.02	0.18594	0.012322	-25.79	0.10271	381.87
77.77690	-204.11	0.1895	0.012555	-25.807	0.10232	386.87
78.77690	-204.04	0.19328	0.012805	-25.803	0.10335	391.99
79.77690	-204.1	0.19675	0.013034	-25.817	0.10273	397.22
80.77690	-204.21	0.20008	0.013252	-25.84	0.10252	402.32
81.77690	-204.35	0.20338	0.013468	-25.868	0.10317	407.29
82.77690	-204.54	0.20655	0.013678	-25.891	0.10202	411.95
83.77690	-204.48	0.2102	0.013919	-25.888	0.10243	416.66
84.77690	-204.62	0.21389	0.014158	-25.914	0.10257	421.52
85.77690	-204.56	0.21794	0.014427	-25.92	0.10269	426.47
86.77690	-204.78	0.22216	0.014704	-25.949	0.10404	431.52
87.77690	-204.73	0.22629	0.014974	-25.947	0.10306	436.85
88.77690	-205.01	0.23015	0.015226	-25.989	0.10227	441.95
89.77690	-205.01	0.2337	0.015458	-25.996	0.10357	447.36
90.77690	-204.96	0.23706	0.015679	-26	0.10412	452.44
91.77690	-205.21	0.23987	0.015864	-26.035	0.10394	457.36
92.77690	-205.44	0.24295	0.016064	-26.075	0.10311	462.15
93.77690	-205.49	0.24651	0.016299	-26.081	0.10405	467
94.77690	-205.52	0.25005	0.01653	-26.086	0.10522	471.74
95.77690	-205.63	0.25372	0.016774	-26.11	0.10392	476.58
96.77690	-205.65	0.25761	0.017028	-26.122	0.10466	481.52
97.49140	-205.79	0.26074	0.017232	-26.144	0.10466	485.21
98.49140	-205.69	0.26467	0.01749	-26.14	0.10483	490.67
98.51500	-205.73	0.26477	0.017497	-26.147	0.10464	490.81
99.51500	-205.81	0.26819	0.017723	-26.159	0.10361	496.45
100.51500	-206.14	0.27071	0.017887	-26.204	0.10508	501.77
101.51500	-206.38	0.27278	0.018026	-26.242	0.10526	506.76
102.51500	-206.54	0.27519	0.01818	-26.267	0.1043	511.14
103.51500	-206.47	0.27828	0.018383	-26.26	0.10486	515.26
104.51500	-206.41	0.28217	0.018639	-26.255	0.10546	519.44
105.51500	-206.38	0.28648	0.01892	-26.264	0.1061	524.29
106.51500	-206.41	0.29101	0.019216	-26.279	0.10616	529.54
107.51500	-206.51	0.29531	0.019496	-26.291	0.10589	535.24
108.51500	-206.54	0.2991	0.019745	-26.298	0.10649	541.01
109.51500	-206.58	0.30228	0.019953	-26.314	0.10606	546.66
110.51500	-206.84	0.30451	0.0201	-26.349	0.10705	551.97
111.51500	-207.05	0.30642	0.020223	-26.387	0.1063	556.71
112.51500	-207.31	0.30867	0.02037	-26.418	0.10673	561.16
113.51500	-207.33	0.31175	0.020568	-26.421	0.10729	565.45
114.51500	-207.23	0.31546	0.020811	-26.419	0.10704	569.81
115.51500	-207.24	0.31963	0.021084	-26.428	0.10688	574.52
116.51500	-207.2	0.32399	0.021366	-26.436	0.10711	579.53
117.51500	-207.27	0.32841	0.021656	-26.448	0.10726	584.94
118.51500	-207.36	0.33261	0.021931	-26.468	0.10753	590.54
119.51500	-207.3	0.33614	0.022161	-26.463	0.108	596.1
120.51500	-207.42	0.33884	0.022336	-26.492	0.10773	601.49
121.51500	-207.74	0.34137	0.022504	-26.533	0.10761	606.59
122.51500	-207.88	0.34433	0.022696	-26.552	0.10646	611.45
123.51500	-207.76	0.34753	0.022905	-26.529	0.10866	616.18
124.51500	-207.8	0.35068	0.02311	-26.552	0.10803	620.83
125.51500	-207.87	0.3539	0.023322	-26.572	0.10808	625.49
126.51500	-208.04	0.35753	0.023558	-26.597	0.10839	630.22
127.51500	-208.14	0.36122	0.0238	-26.613	0.10838	635.1
128.51500	-208.16	0.3649	0.024036	-26.624	0.10919	640.09
129.51500	-208.1	0.36854	0.024274	-26.624	0.10852	645.2
130.51500	-208.15	0.37205	0.024503	-26.639	0.10859	650.46
131.51500	-208.23	0.3753	0.024716	-26.657	0.10862	655.62
132.51500	-208.42	0.37869	0.024934	-26.678	0.10876	660.83
133.51500	-208.48	0.38161	0.025124	-26.689	0.10896	665.97
134.51500	-208.44	0.3845	0.025313	-26.691	0.10953	670.89
135.51500	-208.62	0.38745	0.025503	-26.724	0.10866	675.87
136.51500	-208.72	0.3903	0.02569	-26.741	0.10888	680.64
137.51500	-208.83	0.3934	0.025889	-26.756	0.1093	685.41
138.42390	-208.75	0.3961	0.026065	-26.753	0.10937	689.79
139.42390	-208.8	0.39914	0.026263	-26.768	0.10995	694.54
140.42390	-208.9	0.40244	0.026475	-26.792	0.1103	699.37
141.42390	-209.03	0.40569	0.026686	-26.806	0.10942	704.46
142.42390	-209.09	0.40825	0.02685	-26.818	0.11007	709.67
143.42390	-209.97	0.40937	0.026922	-26.938	0.11014	715.01
143.55800	-210.21	0.40942	0.026925	-26.964	0.1103	715.72
144.55800	-209.94	0.41001	0.026963	-26.935	0.1111	720.98
145.55800	-210.13	0.41019	0.026976	-26.956	0.11048	726.13
146.55800	-209.54	0.41028	0.026982	-26.877	0.11075	731.02
147.55800	-209.03	0.41045	0.026994	-26.813	0.11079	735.66
148.55800	-208.72	0.41064	0.027009	-26.778	0.10967	740.16
149.55800	-207.66	0.41089	0.027023	-26.643	0.11064	744.34
150.55800	-204.14	0.41115	0.027039	-26.194	0.11097	747.35
151.55800	-197.87	0.41143	0.02706	-25.382	0.11107	748.51
152.55800	-197.43	0.41219	0.02711	-25.329	0.11087	748.51
153.55800	-210.32	0.41424	0.027241	-26.989	0.11187	749.93
154.55800	-209.68	0.42838	0.028156	-26.934	0.11174	758.54
155.55800	-207.17	0.43848	0.028814	-26.619	0.11156	791.66
156.55800	-178.74	0.43382	0.028512	-22.962	0.11182	812.37
157.55800	-165.65	0.42636	0.028031	-21.269	0.11134	818.88
158.55800	-162.73	0.41702	0.027423	-20.888	0.11184	818.9
159.55800	-161.02	0.40796	0.026837	-20.655	0.11157	815.53
160.55800	-117.99	0.40653	0.026743	-15.128	0.11146	810.42
161.55800	-84.86	0.40753	0.026808	-10.887	0.11254	804.41
162.55800	-87.324	0.40881	0.02689	-11.203	0.1122	801.08
163.55800	-98.668	0.4145	0.027259	-12.665	0.1118	803.65
164.55800	-100.77	0.42424	0.02789	-12.942	0.11333	810.62
165.55800	-101.16	0.43385	0.028512	-12.994	0.11341	819.45
166.55800	-100.98	0.44138	0.028998	-12.976	0.11353	828.19
167.55800	-101.04	0.44711	0.029369	-12.989	0.11293	836
168.55800	-101.14	0.45112	0.02963	-13.012	0.11319	842.23
169.55800	-101.46	0.45455	0.029853	-13.052	0.11224	847.37
170.55800	-101.54	0.45793	0.03007	-13.066	0.11255	851.89
171.55800	-101.69	0.46169	0.030312	-13.083	0.11339	856.33
172.55800	-101.61	0.46581	0.030581	-13.084	0.1141	860.78
173.55800	-101.58	0.46999	0.03085	-13.087	0.11344	865.63
174.55800	-101.63	0.47405	0.031114	-13.093	0.11435	870.6
175.55800	-101.72	0.4781	0.031373	-13.11	0.11422	875.78
176.55800	-101.84	0.48222	0.031642	-13.125	0.11523	880.47
177.55800	-101.77	0.48638	0.031912	-13.112	0.11529	885.54
178.55800	-101.75	0.49071	0.032194	-13.118	0.11487	890.82
179.35450	-101.87	0.49419	0.032415	-13.142	0.11452	894.91
180.35450	-102.02	0.49827	0.03268	-13.161	0.11475	899.85
181.35450	-102.08	0.50209	0.032927	-13.168	0.11555	904.94
182.35450	-101.88	0.5059	0.033171	-13.148	0.11537	909.9
182.59450	-101.99	0.50678	0.033229	-13.163	0.11532	911.12
183.59450	-102.07	0.51051	0.03347	-13.177	0.1148	915.92
184.59450	-102.09	0.51438	0.033719	-13.183	0.11659	920.97
185.59450	-102.14	0.51837	0.033975	-13.197	0.11515	926.11
186.59450	-102.22	0.52223	0.034226	-13.209	0.11562	931.09
187.59450	-102.22	0.526	0.034468	-13.204	0.11595	936.1
188.59450	-102.16	0.52969	0.034703	-13.201	0.11626	941.09
189.59450	-102.26	0.53354	0.034952	-13.22	0.11589	946.02
190.59450	-102.22	0.53711	0.035184	-13.222	0.11562	951.02
191.59450	-102.37	0.54052	0.035399	-13.249	0.11686	955.98
192.59450	-102.58	0.54433	0.035643	-13.269	0.11686	960.98
193.59450	-102.56	0.54791	0.035877	-13.265	0.11637	965.94
194.59450	-102.51	0.55132	0.036093	-13.269	0.11644	970.98
195.59450	-102.5	0.55501	0.03633	-13.274	0.11622	976.03
196.59450	-102.55	0.55833	0.036545	-13.285	0.11652	980.99
197.59450	-102.73	0.56181	0.036768	-13.311	0.11645	985.99
198.59450	-102.82	0.56542	0.037001	-13.317	0.11731	991.06
199.59450	-102.75	0.56855	0.037202	-13.312	0.11616	996.12
200.59450	-102.8	0.57165	0.037401	-13.328	0.11607	1001.2
201.59450	-102.8	0.57448	0.037581	-13.334	0.11626	1006.2
202.59450	-102.91	0.57731	0.037766	-13.351	0.11641	1011.2
203.59450	-103.1	0.57989	0.037933	-13.367	0.11607	1016.1
204.59450	-103.11	0.58259	0.038104	-13.376	0.11633	1021.1
205.59450	-103.19	0.58519	0.03827	-13.385	0.11732	1026
206.59450	-103.24	0.58732	0.03841	-13.401	0.11681	1030.9
207.59450	-103.42	0.58922	0.038531	-13.42	0.11727	1035.7
208.59450	-103.67	0.59126	0.038663	-13.452	0.11638	1040.6
209.59450	-103.58	0.59352	0.038807	-13.446	0.11677	1045.8
210.59450	-103.93	0.59485	0.038892	-13.494	0.11653	1051
211.59450	-104.05	0.59614	0.038974	-13.509	0.11625	1055.9
212.59450	-104.42	0.59725	0.039046	-13.559	0.11675	1061.1
213.59450	-105.35	0.59739	0.039054	-13.68	0.11671	1066.1
214.59450	-105.38	0.59761	0.039069	-13.684	0.11739	1071.1
215.59450	-104.84	0.59762	0.03907	-13.609	0.11648	1076.1
216.59450	-103.58	0.59764	0.039069	-13.447	0.11587	1081
217.59450	-102.47	0.59784	0.039081	-13.305	0.11655	1086
218.59450	-100.74	0.5979	0.039086	-13.081	0.11565	1090.9
219.59450	-99.339	0.59781	0.039081	-12.901	0.11541	1095.6
220.41450	-98.461	0.59791	0.039085	-12.78	0.1158	1099.7
221.41450	-97.111	0.59804	0.039093	-12.605	0.11683	1104.9
221.74240	-96.736	0.59807	0.039097	-12.557	0.11692	1106.6
222.74240	-95.049	0.59801	0.039093	-12.343	0.11619	1111.8
223.74240	-93.201	0.59791	0.039086	-12.102	0.11644	1117
224.74240	-91.505	0.59811	0.039095	-11.884	0.11643	1122
225.74240	-90.092	0.5981	0.039099	-11.702	0.11711	1127.1
226.74240	-88.386	0.59789	0.039085	-11.478	0.11585	1132.3
227.74240	-86.937	0.59786	0.039082	-11.289	0.1167	1137.5
228.74240	-85.264	0.59787	0.039085	-11.068	0.11588	1142.6
229.74240	-83.723	0.59777	0.039081	-10.873	0.11593	1147.5
230.74240	-82.639	0.59768	0.039073	-10.734	0.11606	1152.3
231.74240	-81.525	0.59755	0.039064	-10.585	0.11566	1157.2
232.74240	-80.422	0.59752	0.039063	-10.44	0.11575	1162.3
233.74240	-79.093	0.59758	0.039067	-10.268	0.11682	1167.1
234.74240	-78.282	0.59757	0.039068	-10.166	0.11571	1171.9
235.74240	-77.765	0.59747	0.039062	-10.1	0.11644	1177.1
236.74240	-76.843	0.59736	0.039054	-9.9762	0.11591	1182.1
237.74240	-75.836	0.59728	0.039047	-9.8419	0.11529	1187
238.74240	-75.209	0.59739	0.039053	-9.7647	0.11512	1191.9
239.74240	-74.71	0.59721	0.03904	-9.7029	0.11441	1197
240.74240	-73.361	0.59663	0.039004	-9.5243	0.11495	1201.5
241.74240	-70.434	0.59511	0.038908	-9.1397	0.11433	1202.8
242.74240	-68.045	0.59353	0.038807	-8.8266	0.11637	1202.4
243.74240	-66.443	0.59235	0.03873	-8.6225	0.11664	1201.5
244.74240	-65.128	0.59181	0.038694	-8.4549	0.11537	1201
245.74240	-64.844	0.5912	0.038655	-8.418	0.11498	1200.7
246.74240	-64.768	0.59061	0.038616	-8.4056	0.11559	1200.5
247.74240	-63.936	0.58991	0.038572	-8.2978	0.11422	1200.3
248.74240	-64.357	0.58866	0.038494	-8.35	0.1146	1200.2
249.74240	-63.462	0.58827	0.038469	-8.2366	0.11457	1200.1
250.74240	-63.928	0.58728	0.038401	-8.3014	0.11561	1200
251.74240	-63.792	0.58711	0.03839	-8.2785	0.11515	1199.8
252.74240	-63.712	0.5865	0.038353	-8.2659	0.11745	1199.9
253.74240	-62.607	0.58629	0.038343	-8.1237	0.11769	1199.9
254.74240	-63.618	0.58545	0.038291	-8.2552	0.11709	1200
255.74240	-63.142	0.58497	0.03826	-8.1943	0.11702	1200
256.74240	-62.43	0.585	0.038258	-8.1013	0.11701	1200
257.74240	-63.548	0.5843	0.038214	-8.2473	0.11669	1200
258.74240	-62.876	0.5841	0.038205	-8.1555	0.11745	1200.2
259.74240	-62.107	0.5837	0.03818	-8.0575	0.11674	1200.2
260.74240	-61.602	0.58362	0.038171	-7.9942	0.11679	1200.1
261.34530	-63.423	0.58295	0.038127	-8.2266	0.11557	1200
262.34530	-63.067	0.58285	0.038123	-8.1831	0.11626	1200
262.36960	-63.085	0.58287	0.038124	-8.182	0.11627	1200
263.36960	-62.597	0.58267	0.038114	-8.12	0.11754	1200.1
264.36960	-62.343	0.58248	0.038098	-8.0934	0.11812	1200.1
265.36960	-62.022	0.58259	0.038103	-8.0461	0.11935	1200
266.36960	-61.536	0.58277	0.038115	-7.9782	0.11703	1199.8
267.36960	-61.265	0.58268	0.038113	-7.9456	0.11788	1199.7
268.36960	-61.31	0.58244	0.038094	-7.9552	0.11838	1199.8
269.36960	-61.54	0.58246	0.038093	-7.9892	0.11773	1200
270.36960	-61.48	0.58273	0.03811	-7.9705	0.11708	1200
271.36960	-61.06	0.58285	0.038119	-7.9227	0.11723	1199.9
272.36960	-60.901	0.58277	0.038116	-7.8995	0.11648	1199.7
273.36960	-61.317	0.58278	0.038116	-7.9572	0.11716	1199.9
274.36960	-61.805	0.5827	0.03811	-8.0215	0.11664	1200.1
275.36960	-62.233	0.58271	0.03811	-8.0741	0.11677	1200.2
276.36960	-62.246	0.58297	0.038125	-8.0711	0.11716	1200.2
277.36960	-62.179	0.5831	0.038134	-8.062	0.11583	1200.2
278.36960	-62.301	0.58326	0.038146	-8.0878	0.11696	1200.2
279.36960	-62.641	0.58325	0.038147	-8.1288	0.11726	1200.2
280.36960	-63.066	0.58322	0.038146	-8.1813	0.11643	1200.3
281.36960	-63.3	0.58321	0.038147	-8.2092	0.11763	1200.3
282.36960	-63.219	0.58335	0.038153	-8.1944	0.11591	1200.2
283.36960	-63.258	0.58361	0.038168	-8.2087	0.11678	1200.2
284.36960	-63.066	0.58366	0.038175	-8.1876	0.11677	1200.2
285.36960	-62.96	0.58363	0.038175	-8.1686	0.11625	1200.1
286.36960	-62.679	0.58344	0.038162	-8.1262	0.11799	1200.1
287.36960	-62.382	0.58337	0.038156	-8.09	0.11629	1200.1
288.36960	-61.96	0.5835	0.038163	-8.0375	0.11695	1200
289.36960	-61.595	0.58366	0.038172	-7.9925	0.11699	1199.8
290.36960	-61.268	0.58382	0.038182	-7.954	0.11584	1199.6
291.36960	-61.628	0.58377	0.038181	-7.9972	0.11624	1199.7
292.36960	-61.635	0.58369	0.038177	-7.9964	0.1161	1199.8
293.36960	-61.63	0.58365	0.038175	-7.9951	0.11632	1200
294.36960	-61.69	0.58354	0.038166	-8.0081	0.11627	1200.1
295.36960	-61.506	0.58349	0.038162	-7.978	0.11598	1200.3
296.36960	-61.104	0.58352	0.038163	-7.921	0.11806	1200.3
297.36960	-61.076	0.5834	0.038156	-7.9221	0.11819	1200.3
298.36960	-62.992	0.58213	0.038072	-8.1733	0.11711	1200.2
299.36960	-62.654	0.58199	0.038063	-8.1268	0.11769	1200.2
300.36960	-62.508	0.58196	0.03806	-8.1108	0.11587	1200
301.36960	-62.296	0.58185	0.038054	-8.0762	0.11672	1199.9
302.28160	-61.858	0.58182	0.038053	-8.0258	0.11566	1200
303.28160	-61.593	0.58179	0.038051	-7.9972	0.1162	1200
304.28160	-61.543	0.58172	0.038047	-7.9827	0.11643	1200.1
305.28160	-61.203	0.58164	0.038046	-7.9348	0.11595	1200.2
306.28160	-63.212	0.58009	0.037945	-8.1925	0.11663	1200.2
306.51640	-63.294	0.57989	0.037933	-8.204	0.11625	1200.2
307.51640	-62.373	0.57975	0.037925	-8.0871	0.1162	1200.1
308.51640	-61.823	0.5797	0.037922	-8.0162	0.1161	1199.9
309.51640	-61.422	0.57997	0.03794	-7.9712	0.11532	1199.9
310.51640	-61.431	0.58029	0.037958	-7.969	0.11552	1199.9
311.51640	-61.343	0.58044	0.037968	-7.9547	0.11518	1200.1
312.51640	-63.345	0.57948	0.037904	-8.2122	0.11467	1200.1
313.51640	-63.159	0.57922	0.037887	-8.1967	0.11449	1200.1
314.51640	-62.755	0.57916	0.037886	-8.1402	0.11434	1200.1
315.51640	-62.265	0.57926	0.037892	-8.0694	0.11453	1200.2
316.51640	-61.845	0.57933	0.037897	-8.02	0.11427	1200.2
317.51640	-61.307	0.57943	0.037904	-7.9484	0.11387	1200.1
318.51640	-63.468	0.57855	0.037848	-8.2327	0.11546	1200.1
319.51640	-63.598	0.57828	0.037826	-8.2459	0.11591	1200.1
320.51640	-63.133	0.57823	0.037822	-8.182	0.11502	1200
321.51640	-62.979	0.57836	0.03783	-8.1667	0.11587	1200
322.51640	-63.597	0.57849	0.037838	-8.2539	0.11612	1200.2
323.51640	-64.227	0.57857	0.037842	-8.3312	0.11643	1200.3
324.51640	-64.604	0.57862	0.037846	-8.3757	0.1161	1200.4
325.51640	-64.725	0.57888	0.037862	-8.3955	0.11665	1200.2
326.51640	-64.731	0.57905	0.037873	-8.3947	0.11493	1200.1
327.51640	-65.054	0.57923	0.037883	-8.4386	0.11421	1199.9
328.51640	-65.433	0.57948	0.037902	-8.4889	0.1154	1200.1
329.51640	-64.886	0.57959	0.037908	-8.4145	0.11531	1200.1
330.51640	-63.904	0.57967	0.037912	-8.2922	0.1146	1200
331.51640	-63.228	0.5797	0.037918	-8.2047	0.114	1199.8
332.51640	-62.688	0.57982	0.037929	-8.1342	0.11355	1199.7
333.51640	-62.313	0.57971	0.037922	-8.0842	0.11336	1199.6
334.51640	-61.828	0.57956	0.037913	-8.0152	0.11233	1199.8
335.51640	-61.667	0.57951	0.037911	-7.9901	0.11307	1199.8
336.51640	-62.501	0.57921	0.037891	-8.1089	0.11284	1199.9
337.51640	-63.369	0.57894	0.037873	-8.2175	0.1135	1200.1
338.51640	-62.86	0.57887	0.037867	-8.1493	0.11325	1200.2
339.51640	-62.184	0.57896	0.037872	-8.061	0.11337	1200.1
340.51640	-61.734	0.57903	0.037876	-8.0026	0.11293	1200
341.51640	-61.504	0.57917	0.037884	-7.9792	0.1126	1200
342.51640	-61.482	0.57922	0.037887	-7.9763	0.11349	1200
343.21760	-61.257	0.57918	0.037885	-7.9442	0.11414	1200
344.21760	-61.152	0.57923	0.03789	-7.9338	0.11372	1199.9
345.21760	-61.265	0.57932	0.037894	-7.9493	0.11466	1200
345.65100	-61.1	0.57935	0.037896	-7.9257	0.11462	1200
346.65100	-61.098	0.5794	0.037899	-7.9269	0.11436	1200
347.65100	-61.204	0.57944	0.037902	-7.9459	0.11547	1200
348.65100	-61.316	0.57956	0.037908	-7.957	0.11417	1200
349.65100	-61.414	0.57961	0.03791	-7.9634	0.11223	1200
350.65100	-61.451	0.57965	0.037912	-7.9681	0.11134	1199.9
351.65100	-61.685	0.57958	0.037907	-8.0077	0.11115	1199.9
352.65100	-61.969	0.57952	0.037904	-8.0415	0.11062	1199.9
353.65100	-61.938	0.57948	0.037902	-8.0298	0.11159	1200
354.65100	-61.959	0.57939	0.037898	-8.0344	0.11138	1200.1
355.65100	-61.793	0.57968	0.037919	-8.0135	0.11085	1200
356.65100	-61.778	0.57996	0.037934	-8.0202	0.11117	1199.8
357.65100	-62.335	0.58002	0.037936	-8.0863	0.11135	1200
358.65100	-62.635	0.57986	0.037929	-8.1226	0.113	1200
359.65100	-62.668	0.57999	0.03794	-8.1265	0.11251	1200
360.65100	-62.655	0.5804	0.037965	-8.1314	0.11399	1199.9
361.65100	-63.269	0.5804	0.037963	-8.2051	0.11233	1199.8
362.65100	-63.698	0.58026	0.037958	-8.259	0.11135	1200
363.65100	-63.711	0.58053	0.037975	-8.2624	0.11233	1200
364.65100	-64.127	0.58073	0.037984	-8.3242	0.11373	1200.1
365.65100	-64.027	0.58051	0.037972	-8.3075	0.11246	1200.2
366.65100	-63.948	0.58071	0.037986	-8.2909	0.11094	1200.1
367.65100	-63.868	0.58109	0.038007	-8.2802	0.11122	1200.2
368.65100	-63.55	0.58078	0.037988	-8.2443	0.11007	1200.1
369.65100	-63.135	0.58083	0.037994	-8.1824	0.10954	1199.9
370.65100	-62.923	0.58109	0.038008	-8.1553	0.10871	1199.7
371.65100	-63.643	0.581	0.038001	-8.2533	0.11046	1200
372.65100	-63.992	0.5811	0.038007	-8.2998	0.1106	1200.2
373.65100	-63.659	0.5814	0.038028	-8.2584	0.10937	1200.2
374.65100	-63.111	0.58136	0.038022	-8.1855	0.11016	1200
375.65100	-62.619	0.58114	0.03801	-8.1199	0.1109	1200
376.65100	-62.069	0.58146	0.038032	-8.0563	0.11066	1200
377.65100	-61.784	0.58159	0.038038	-8.0158	0.11174	1200
378.65100	-61.397	0.58128	0.038015	-7.9624	0.11239	1200
379.65100	-63.751	0.57973	0.037923	-8.2671	0.11232	1200
380.65100	-62.797	0.57981	0.037926	-8.1474	0.11273	1199.9
381.65100	-64.255	0.57928	0.037889	-8.3362	0.11215	1199.9
382.65100	-63.982	0.57874	0.037857	-8.2948	0.11263	1200
383.65100	-63.064	0.57868	0.037856	-8.1724	0.11077	1200
384.26650	-62.799	0.57884	0.037867	-8.1457	0.10965	1200
385.26650	-62.461	0.57898	0.037872	-8.101	0.11053	1199.8
385.29010	-62.497	0.579	0.037873	-8.106	0.11054	1199.8
386.29010	-64.375	0.57772	0.037792	-8.3485	0.11102	1199.8
387.29010	-63.832	0.57753	0.037782	-8.2785	0.1112	1199.9
388.29010	-63.478	0.57786	0.037806	-8.2369	0.11078	1199.9
389.29010	-63.646	0.57817	0.03782	-8.2568	0.10985	1200
390.29010	-63.266	0.57808	0.037814	-8.2009	0.10917	1200.1
391.29010	-62.695	0.57804	0.037815	-8.1332	0.1096	1200
392.29010	-62.532	0.57824	0.037829	-8.1087	0.10863	1200
393.29010	-62.362	0.57856	0.037845	-8.086	0.10924	1200
394.29010	-62.435	0.57847	0.037838	-8.0914	0.10932	1200
395.29010	-61.89	0.57843	0.037836	-8.0247	0.11084	1200
396.29010	-61.753	0.57852	0.037844	-8.0109	0.11161	1200
397.29010	-63.21	0.57826	0.03783	-8.198	0.11129	1200
398.29010	-64.391	0.5777	0.03779	-8.3503	0.11196	1200
399.29010	-64.265	0.57766	0.037787	-8.3279	0.11259	1200.1
400.29010	-63.856	0.57749	0.037776	-8.282	0.11221	1200.1
401.29010	-63.604	0.57756	0.03778	-8.2509	0.11391	1200
402.29010	-63.54	0.57792	0.037805	-8.2372	0.11371	1200.1
403.29010	-63.36	0.57831	0.037826	-8.2147	0.11116	1200
404.29010	-63.142	0.57824	0.037821	-8.1859	0.11079	1200
405.29010	-62.925	0.57815	0.037819	-8.1676	0.10974	1200
406.29010	-62.718	0.57839	0.037835	-8.1352	0.1102	1199.9
407.29010	-62.399	0.57873	0.037857	-8.0894	0.10977	1199.9
408.29010	-62.065	0.57886	0.037865	-8.0533	0.11075	1199.7
409.29010	-62.146	0.57873	0.037855	-8.0646	0.11094	1199.8
410.29010	-62.343	0.5789	0.037866	-8.0852	0.11239	1199.9
411.29010	-62.319	0.57895	0.037873	-8.0843	0.11251	1200
412.29010	-62.136	0.57919	0.037891	-8.0542	0.11208	1199.9
413.29010	-62.074	0.57945	0.037906	-8.0498	0.11306	1199.8
414.29010	-62.49	0.57978	0.037926	-8.1105	0.11294	1199.8
415.29010	-62.912	0.57964	0.037914	-8.1599	0.11305	1199.9
416.29010	-63.677	0.57939	0.037897	-8.2591	0.11147	1200.2
417.29010	-64.248	0.57915	0.037883	-8.3338	0.11234	1200.4
418.29010	-64.262	0.57897	0.037871	-8.3313	0.11361	1200.3
419.29010	-64.515	0.57885	0.037864	-8.3704	0.11389	1200.3
420.29010	-64.777	0.57877	0.037857	-8.4026	0.11181	1200.1
421.29010	-62.701	0.57638	0.037707	-8.1242	0.11198	1197.8
422.29010	-64.672	0.57079	0.037349	-8.3807	0.11145	1192.7
423.29010	-63.984	0.56655	0.037076	-8.2904	0.11134	1186.9
424.29010	-63.586	0.56315	0.036855	-8.2368	0.11193	1181.4
425.21710	-63.226	0.56023	0.036668	-8.186	0.11161	1176.6
426.21710	-62.847	0.55694	0.036457	-8.1366	0.11309	1171.4
427.21710	-62.59	0.55349	0.036234	-8.1033	0.1131	1166.2
428.21710	-62.7	0.54974	0.035992	-8.1171	0.11328	1161.1
429.21710	-62.538	0.54597	0.03575	-8.0909	0.11397	1156.1
430.21710	-62.218	0.54235	0.035516	-8.0485	0.1158	1151
430.35210	-62.352	0.54187	0.035485	-8.0672	0.11561	1150.4
431.35210	-62.189	0.53838	0.03526	-8.0426	0.11481	1145.5
432.35210	-62.044	0.53465	0.035019	-8.0245	0.11569	1140.4
433.35210	-62.042	0.53068	0.034763	-8.0261	0.11459	1135.2
434.35210	-62.179	0.5267	0.034507	-8.0351	0.11245	1130.2
435.35210	-62.268	0.52264	0.03425	-8.0388	0.11358	1125.2
436.35210	-62.145	0.51839	0.033975	-8.0269	0.11381	1120.1
437.35210	-62.249	0.51404	0.033697	-8.04	0.11389	1115.1
438.35210	-62.241	0.50966	0.033416	-8.0359	0.11549	1110.2
439.35210	-62.432	0.50547	0.033146	-8.0584	0.11535	1105.1
440.35210	-62.631	0.50124	0.032871	-8.0763	0.11571	1100.1
441.35210	-62.451	0.49726	0.032613	-8.0552	0.11441	1095.1
442.35210	-62.568	0.49324	0.032354	-8.07	0.11482	1090.2
443.35210	-62.74	0.489	0.032084	-8.0899	0.11568	1085.2
444.35210	-62.706	0.48467	0.031803	-8.0892	0.11503	1080.2
445.35210	-62.894	0.48048	0.031532	-8.102	0.11565	1075.1
446.35210	-62.899	0.47627	0.031259	-8.1036	0.11637	1070.2
447.35210	-62.82	0.47264	0.031022	-8.0932	0.11691	1065.2
448.35210	-62.933	0.46902	0.030788	-8.1086	0.11584	1060.2
449.35210	-63.152	0.46517	0.030539	-8.1306	0.11577	1055.2
450.35210	-63.147	0.46124	0.030286	-8.1317	0.1161	1050.2
451.35210	-63.159	0.4572	0.030025	-8.1239	0.11632	1045.2
452.35210	-63.167	0.45304	0.029756	-8.1247	0.1147	1040.2
453.35210	-63.282	0.44906	0.029495	-8.1427	0.11608	1035.2
454.35210	-63.382	0.44552	0.029265	-8.1524	0.11541	1030.2
455.35210	-63.452	0.4417	0.029017	-8.1543	0.11528	1025.2
456.35210	-63.521	0.43819	0.028792	-8.1593	0.11465	1020.1
457.35210	-63.377	0.43436	0.028545	-8.1408	0.11571	1015.3
458.35210	-63.592	0.43012	0.028269	-8.1721	0.11495	1010.2
459.35210	-63.718	0.42575	0.027988	-8.1837	0.11521	1005.2
460.35210	-63.876	0.13823	0.0090872	-8.0459	0.07786	1000.2
461.10000	-63.756	0.086003	0.0056539	-8.0044	0.088811	999.28
466.10000	-70.009	0.0048517	0.00032439	-8.7421	0.073303	999.2
471.10000	-68.567	0.0021251	0.00014212	-8.5619	0.019809	999.87
476.10000	-66.127	0.0023195	0.0001567	-8.2572	-0.038834	999.92
481.10000	-65.088	0.0026581	0.00017399	-8.1293	-0.097176	999.97
486.10000	-64.517	0.0033458	0.00022134	-8.0581	-0.15524	999.75
491.10000	-63.765	0.004396	0.00029569	-7.9667	-0.21316	999.81
496.10000	-62.657	0.0066152	0.00044212	-7.8289	-0.27156	1000.1
501.10000	-61.815	0.007814	0.00051927	-7.7229	-0.32953	1000
506.10000	-62.435	0.0093196	0.00062106	-7.8001	-0.38814	999.92
511.10000	-64.571	0.010787	0.00071645	-8.0682	-0.4465	999.95
516.10000	-67.367	0.012156	0.00081195	-8.4175	-0.50436	999.98
521.10000	-70.161	0.013834	0.00092358	-8.7689	-0.56273	999.96
526.10000	-73.972	0.015195	0.0010138	-9.2467	-0.62036	1000.1
531.10000	-75.463	0.016666	0.0011083	-9.4328	-0.67832	1000.1
536.10000	-75.151	0.0173	0.0011495	-9.3966	-0.73598	999.96
541.10000	-75.114	0.018057	0.001204	-9.3906	-0.79468	1000
546.10000	-74.465	0.018958	0.0012644	-9.3105	-0.85262	999.96
551.10000	-74.372	0.019774	0.0013196	-9.2969	-0.91055	999.86
556.10000	-73.739	0.020597	0.0013726	-9.2187	-0.96832	1000
561.10000	-73.349	0.021203	0.0014119	-9.171	-1.0259	1000
566.10000	-73.377	0.021929	0.0014616	-9.1765	-1.083	1000
571.10000	-73.309	0.022612	0.0015101	-9.1678	-1.1405	999.98
576.10000	-73.386	0.023622	0.0015754	-9.1784	-1.1976	1000
581.10000	-73.208	0.02425	0.0016168	-9.1554	-1.2555	999.99
586.10000	-73.069	0.024777	0.0016504	-9.1385	-1.3118	1000.1
591.10000	-73.061	0.024402	0.0016262	-9.1357	-1.369	1000.1
596.10000	-73.632	0.023479	0.0015685	-9.2065	-1.4267	999.92
601.10000	-74.278	0.023356	0.0015595	-9.2875	-1.4834	999.89
606.10000	-74.138	0.023352	0.0015567	-9.272	-1.5399	1000
611.10000	-74.529	0.023141	0.0015424	-9.3201	-1.5972	1000
616.10000	-74.924	0.02324	0.0015491	-9.3683	-1.6545	1000
621.10000	-75.208	0.023507	0.0015681	-9.4045	-1.7114	1000
626.10000	-75.289	0.023914	0.0015941	-9.4155	-1.7683	999.96
631.10000	-79.56	0.025009	0.0016669	-9.9503	-1.8263	1000.1
636.10000	-121.81	0.024487	0.0016279	-15.234	-1.8828	1000.2
641.10000	-158.67	-0.014296	-0.00095485	-19.792	-1.94	1000.1
646.10000	-178.72	-0.06368	-0.0042534	-22.218	-1.9979	999.97
651.10000	-192.03	-0.11349	-0.007593	-23.795	-2.0559	999.98
656.10000	-201.08	-0.16267	-0.010903	-24.835	-2.1133	999.96
661.10000	-209.83	-0.21214	-0.014247	-25.829	-2.1711	999.96
666.10000	-217.44	-0.26302	-0.017691	-26.676	-2.2293	999.98
671.10000	-224.43	-0.31291	-0.021078	-27.437	-2.2864	999.98
676.10000	-234.56	-0.36249	-0.02446	-28.58	-2.3446	999.93
681.10000	-241.78	-0.41354	-0.027958	-29.357	-2.4023	999.97
686.10000	-250.59	-0.46577	-0.031546	-30.318	-2.4611	999.98
691.10000	-255.73	-0.51665	-0.035054	-30.832	-2.5184	1000
696.10000	-264.88	-0.56763	-0.038576	-31.821	-2.5764	999.95
701.10000	-270.99	-0.61745	-0.042031	-32.442	-2.6344	999.81
706.10000	-278.96	-0.6684	-0.045584	-33.279	-2.692	999.96
711.10000	-285.06	-0.71967	-0.049169	-33.885	-2.7495	1000
716.10000	-292.05	-0.77191	-0.052834	-34.59	-2.8074	1000.2
721.10000	-297.61	-0.82304	-0.056432	-35.12	-2.8656	999.94
726.10000	-304.33	-0.87315	-0.059972	-35.785	-2.9231	999.96
731.10000	-310.9	-0.92467	-0.063625	-36.427	-2.9809	1000
736.10000	-314.32	-0.97536	-0.067236	-36.696	-3.0382	999.99
741.10000	-317.32	-1.0268	-0.070913	-36.911	-3.0954	1000
746.10000	-317.38	-1.0766	-0.074476	-36.785	-3.1534	1000
751.10000	-316.76	-1.1273	-0.078123	-36.579	-3.21	1000.1
756.10000	-315.39	-1.1788	-0.081841	-36.285	-3.2676	1000
761.10000	-311.49	-1.2294	-0.085516	-35.707	-3.3235	999.94
766.10000	-308.58	-1.2808	-0.089257	-35.24	-3.3803	1000
771.10000	-304.09	-1.3303	-0.092864	-34.602	-3.4371	1000.1
776.10000	-302.93	-1.382	-0.096657	-34.34	-3.4939	999.98
781.10000	-300.76	-1.4335	-0.10044	-33.966	-3.5514	999.96
786.10000	-300.51	-1.4866	-0.10436	-33.806	-3.6086	1000
791.10000	-298.38	-1.5392	-0.10827	-33.436	-3.6657	999.91
796.10000	-299.87	-1.5902	-0.11207	-33.474	-3.7227	1000.1
801.10000	-302.16	-1.6428	-0.11599	-33.595	-3.7804	999.98
806.10000	-304.48	-1.6952	-0.11993	-33.72	-3.8385	999.9
811.10000	-307.4	-1.7466	-0.1238	-33.914	-3.8953	999.86
816.10000	-308.43	-1.7982	-0.1277	-33.895	-3.9538	1000.1
821.10000	-312.81	-1.8496	-0.1316	-34.243	-4.0105	1000
826.10000	-315.08	-1.9028	-0.13565	-34.35	-4.0687	999.88
831.10000	-318.21	-1.9551	-0.13965	-34.554	-4.1266	1000
836.10000	-319.85	-2.0078	-0.1437	-34.591	-4.1845	1000.2
841.10000	-321.33	-2.0585	-0.14761	-34.617	-4.2428	1000
846.10000	-324.2	-2.1103	-0.15163	-34.786	-4.2999	999.9
851.10000	-325.86	-2.161	-0.15556	-34.825	-4.3579	999.99
856.10000	-327.01	-2.2126	-0.15959	-34.807	-4.4157	999.96
861.10000	-329.31	-2.2637	-0.16359	-34.913	-4.4739	1000
866.10000	-332.82	-2.3153	-0.16766	-35.143	-4.532	1000
871.10000	-335.03	-2.3672	-0.17176	-35.231	-4.59	999.9
876.10000	-338.7	-2.4215	-0.17606	-35.464	-4.6482	999.98
881.10000	-339.52	-2.4746	-0.18029	-35.398	-4.7069	1000.1
886.10000	-338.65	-2.5251	-0.18433	-35.167	-4.7643	999.96
891.10000	-340.15	-2.5775	-0.18854	-35.174	-4.8218	1000.1
896.10000	-341.13	-2.6309	-0.19285	-35.126	-4.8806	999.81
901.10000	-339.87	-2.6837	-0.19713	-34.844	-4.9386	1000
906.10000	-338.95	-2.7359	-0.20137	-34.603	-4.9959	1000.1
911.10000	-340.1	-2.7876	-0.2056	-34.573	-5.0547	999.84
916.10000	-340.85	-2.8395	-0.20986	-34.503	-5.1115	999.95
921.10000	-341.29	-2.8921	-0.2142	-34.399	-5.1698	999.93
926.10000	-342.29	-2.9457	-0.21864	-34.346	-5.2272	1000
931.10000	-342.27	-2.9962	-0.22282	-34.199	-5.2837	1000.1
936.10000	-343.89	-3.0476	-0.22711	-34.214	-5.3412	1000
941.10000	-345.74	-3.0987	-0.23141	-34.251	-5.3975	1000
946.10000	-347.95	-3.1512	-0.23582	-34.318	-5.4548	1000
951.10000	-349.3	-3.2019	-0.24012	-34.305	-5.5108	999.99
956.10000	-350.05	-3.2527	-0.24442	-34.23	-5.5683	999.98
961.10000	-352.16	-3.3032	-0.24873	-34.288	-5.6243	1000
966.10000	-354.05	-3.3551	-0.25318	-34.32	-5.6814	999.89
971.10000	-357.99	-3.4077	-0.25771	-34.546	-5.7383	999.99
976.10000	-361.04	-3.4611	-0.26234	-34.679	-5.7952	1000.2
981.10000	-360.39	-3.5131	-0.26684	-34.46	-5.8528	999.96
986.10000	-363.69	-3.5654	-0.2714	-34.617	-5.9098	1000
991.10000	-366.56	-3.6182	-0.27603	-34.728	-5.9673	1000
996.10000	-368.24	-3.6702	-0.28061	-34.729	-6.0243	1000
1001.10000	-367.41	-3.7224	-0.28524	-34.492	-6.0821	999.92
1006.10000	-370.43	-3.7738	-0.2898	-34.616	-6.1397	999.99
1011.10000	-372.9	-3.8265	-0.2945	-34.683	-6.1974	999.92
1016.10000	-374.07	-3.88	-0.2993	-34.626	-6.2556	999.99
1021.10000	-377.42	-3.932	-0.304	-34.774	-6.3131	1000.2
1026.10000	-377.14	-3.9838	-0.30868	-34.585	-6.3713	1000.1
1031.10000	-381.55	-4.0368	-0.3135	-34.819	-6.4286	999.85
1036.10000	-386.44	-4.0902	-0.31839	-35.094	-6.4867	1000.1
1041.10000	-387.95	-4.1433	-0.32327	-35.06	-6.5446	1000.1
1046.10000	-389.54	-4.1948	-0.32802	-35.038	-6.6027	999.97
1051.10000	-390.87	-4.2445	-0.33264	-34.995	-6.6606	999.95
1056.10000	-392.86	-4.2965	-0.33748	-35.003	-6.7187	999.98
1061.10000	-395.25	-4.3493	-0.34243	-35.041	-6.7769	999.98
1066.10000	-395.4	-4.4014	-0.34733	-34.884	-6.8346	999.99
1071.10000	-396.36	-4.4531	-0.35222	-34.799	-6.8928	1000.1
1076.10000	-399.15	-4.5052	-0.35717	-34.871	-6.9511	1000.1
1081.10000	-401.79	-4.5577	-0.36219	-34.925	-7.0089	999.97
1086.10000	-405.5	-4.6102	-0.36722	-35.069	-7.0664	1000
1091.10000	-408.12	-4.6627	-0.37229	-35.118	-7.1243	1000
1096.10000	-409.35	-4.7131	-0.37719	-35.053	-7.1826	999.99
1101.10000	-410.65	-4.7649	-0.38223	-34.987	-7.2401	1000
1106.10000	-415.56	-4.8173	-0.38737	-35.224	-7.2984	999.97
1111.10000	-417.96	-4.8694	-0.39249	-35.245	-7.3564	1000
1116.10000	-421.93	-4.9216	-0.39765	-35.397	-7.4145	999.99
1121.10000	-422.44	-4.9709	-0.40257	-35.267	-7.4715	1000
1126.10000	-426.39	-5.0223	-0.4077	-35.416	-7.5285	1000
1131.10000	-428.16	-5.0734	-0.41284	-35.38	-7.5854	999.95
1136.10000	-430.98	-5.1257	-0.41811	-35.424	-7.6419	999.86
1141.10000	-430.88	-5.1758	-0.42319	-35.235	-7.699	1000
1146.10000	-435.31	-5.2264	-0.42837	-35.415	-7.7562	1000.1
1151.10000	-438.94	-5.2778	-0.43364	-35.522	-7.8129	1000
1156.10000	-443.16	-5.3306	-0.43908	-35.67	-7.8698	999.98
1161.10000	-445.79	-5.382	-0.44441	-35.692	-7.9264	1000
1166.10000	-448.19	-5.4325	-0.44968	-35.694	-7.984	1000
1171.10000	-453.42	-5.484	-0.45508	-35.916	-8.041	1000
1176.10000	-457.74	-5.5362	-0.46058	-36.06	-8.0987	1000
1181.10000	-461.27	-5.5865	-0.46591	-36.145	-8.1551	1000.1
1186.10000	-466.56	-5.6384	-0.47144	-36.358	-8.2128	999.85
1191.10000	-467.65	-5.6889	-0.47684	-36.245	-8.2701	999.97
1196.10000	-473.55	-5.7407	-0.48242	-36.499	-8.3282	999.95
1201.10000	-477.01	-5.7929	-0.48807	-36.559	-8.3858	1000
1206.10000	-482.22	-5.8445	-0.4937	-36.751	-8.4434	999.82
1211.10000	-482.76	-5.8963	-0.49938	-36.584	-8.501	1000
1216.10000	-489.72	-5.9476	-0.50502	-36.902	-8.5589	1000
1221.10000	-495.27	-5.9988	-0.51069	-37.108	-8.6167	1000
1226.10000	-498.2	-6.0483	-0.51621	-37.125	-8.6747	1000.2
1231.10000	-502.16	-6.0998	-0.52198	-37.203	-8.7324	999.99
1236.10000	-503.79	-6.1502	-0.52766	-37.113	-8.79	1000.1
1241.10000	-510.41	-6.2027	-0.5336	-37.377	-8.8478	999.77
1246.10000	-517.09	-6.2551	-0.53958	-37.641	-8.906	1000.1
1251.10000	-523.26	-6.3074	-0.54559	-37.862	-8.9644	1000.1
1256.10000	-527.38	-6.3593	-0.55157	-37.933	-9.022	999.9
1261.10000	-530.69	-6.4096	-0.55741	-37.95	-9.0798	1000.1
1266.10000	-537.27	-6.4614	-0.56345	-38.187	-9.1377	999.99
1271.10000	-543.17	-6.5136	-0.56958	-38.371	-9.1953	1000
1276.10000	-547.49	-6.5655	-0.57573	-38.44	-9.2533	1000.1
1281.10000	-553.1	-6.6176	-0.58191	-38.593	-9.3115	999.96
1286.10000	-559.31	-6.6683	-0.58799	-38.79	-9.369	999.99
1291.10000	-566.19	-6.7216	-0.59441	-39.015	-9.4268	1000
1296.10000	-571.69	-6.7736	-0.60071	-39.148	-9.4843	999.8
1301.10000	-578.97	-6.826	-0.6071	-39.394	-9.542	1000.1
1306.10000	-579.51	-6.8758	-0.6132	-39.191	-9.5995	1000
1311.10000	-588.82	-6.9266	-0.61948	-39.571	-9.6561	999.93
1316.10000	-594.16	-6.978	-0.62587	-39.676	-9.7136	1000.1
1321.10000	-603.09	-7.0293	-0.63227	-40.015	-9.7704	1000.1
1326.10000	-612.08	-7.0808	-0.63876	-40.349	-9.8279	999.82
1331.10000	-614.76	-7.1306	-0.64507	-40.27	-9.8842	999.9
1336.10000	-624	-7.1828	-0.65173	-40.604	-9.941	1000.3
1341.10000	-634.25	-7.2351	-0.65844	-40.996	-9.9982	999.79
1346.10000	-642.21	-7.2892	-0.66543	-41.219	-10.055	999.74
1351.10000	-648.12	-7.3403	-0.67207	-41.324	-10.112	1000.5
1356.10000	-660.11	-7.3906	-0.67866	-41.812	-10.17	999.85
1361.10000	-665.1	-7.4419	-0.68544	-41.844	-10.227	999.92
1366.10000	-678.62	-7.494	-0.69236	-42.4	-10.285	1000.3
1371.10000	-688.97	-7.5454	-0.69921	-42.753	-10.342	999.62
1376.10000	-691.35	-7.596	-0.70602	-42.61	-10.4	1000.2
1381.10000	-707.21	-7.647	-0.71295	-43.286	-10.457	1000.1
1386.10000	-716.96	-7.6994	-0.7201	-43.57	-10.515	999.93
1391.10000	-725.06	-7.7508	-0.72717	-43.753	-10.572	1000
1396.10000	-739.15	-7.8027	-0.73434	-44.283	-10.63	1000.1
1401.10000	-747.41	-7.8527	-0.74132	-44.466	-10.688	999.91
1406.10000	-759.04	-7.9048	-0.74864	-44.831	-10.746	1000.1
1411.10000	-774.62	-7.9561	-0.75589	-45.419	-10.803	1000
1416.10000	-784.82	-8.0057	-0.76296	-45.693	-10.861	999.86
1421.10000	-797.17	-8.056	-0.77017	-46.078	-10.92	1000
1426.10000	-808.51	-8.1048	-0.77722	-46.406	-10.977	999.89
1431.10000	-820.13	-8.1561	-0.7847	-46.722	-11.034	1000.1
1436.10000	-836.01	-8.2078	-0.79229	-47.267	-11.093	1000
1441.10000	-850.78	-8.2587	-0.79982	-47.741	-11.15	999.91
1446.10000	-863.22	-8.3088	-0.80726	-48.079	-11.209	999.95
1451.10000	-876.51	-8.36	-0.81494	-48.446	-11.266	1000.1
1456.10000	-895.44	-8.4109	-0.82263	-49.113	-11.323	1000.1
1461.10000	-910.3	-8.4623	-0.83048	-49.539	-11.381	999.61
1466.10000	-919.17	-8.5129	-0.83824	-49.635	-11.439	1000.4
1471.10000	-938.25	-8.5613	-0.84572	-50.287	-11.496	1000
1476.10000	-957.35	-8.6117	-0.85357	-50.908	-11.554	999.51
1481.10000	-973.07	-8.6622	-0.86151	-51.336	-11.611	1000.5
1486.10000	-992.93	-8.7123	-0.86946	-51.97	-11.669	1000.4
1491.10000	-1014.8	-8.7611	-0.87725	-52.702	-11.726	999.59
1496.10000	-1032.8	-8.8095	-0.88504	-53.221	-11.783	999.72
1501.10000	-1052.3	-8.8591	-0.89308	-53.793	-11.839	1000.5
1502.56390	-1081.4	-8.8889	-0.89793	-55.014	-11.874	999.5
1503.06390	-978.08	-8.8923	-0.8985	-49.728	-11.872	925.48
1503.56390	-866.88	-8.8902	-0.89815	-44.09	-11.866	832.74
1504.06390	-781.18	-8.8894	-0.89802	-39.736	-11.861	791.31
1504.56390	-680.18	-8.8854	-0.89737	-34.618	-11.854	761.6
1505.06390	-597.33	-8.882	-0.89681	-30.423	-11.848	739.04
1505.56390	-531.6	-8.8797	-0.89644	-27.084	-11.844	720.95
1506.06390	-451.69	-8.8755	-0.89575	-23.028	-11.836	707.94
1506.56390	-389.07	-8.8725	-0.89526	-19.846	-11.828	697.23
1507.06390	-341.02	-8.8708	-0.89499	-17.399	-11.823	687.78
1507.56390	-303.17	-8.8705	-0.89494	-15.469	-11.818	679.44
1508.06390	-251.63	-8.8665	-0.89428	-12.848	-11.81	670.79
1508.56390	-213.92	-8.8646	-0.89397	-10.927	-11.803	661.95
1509.06390	-184.49	-8.8625	-0.89363	-9.4261	-11.796	653.45
1509.56390	-161.14	-8.8603	-0.89328	-8.234	-11.79	645.02
1510.06390	-134.25	-8.857	-0.89274	-6.8657	-11.783	635.7
1510.56390	-115.52	-8.8551	-0.89243	-5.9082	-11.778	626.89
1511.06390	-96.52	-8.8536	-0.89219	-4.9362	-11.771	618.24
1511.56390	-83.864	-8.8549	-0.89241	-4.2917	-11.764	609.87
1512.06390	-76.927	-8.8581	-0.89292	-3.9328	-11.758	601.82
1512.56390	-69.783	-8.8618	-0.89352	-3.5661	-11.75	594.25
1513.06390	-65.332	-8.8644	-0.89395	-3.3383	-11.741	586.5
1513.56390	-61.816	-8.8664	-0.89427	-3.1562	-11.735	578.92
1514.06390	-58.626	-8.8681	-0.89454	-2.9941	-11.728	571.44
1514.56390	-55.918	-8.8694	-0.89476	-2.8539	-11.721	564.3
1515.06390	-53.818	-8.8707	-0.89498	-2.7471	-11.714	557.37
1515.56390	-52.015	-8.872	-0.89519	-2.6526	-11.706	550.26
1516.06390	-50.692	-8.8729	-0.89534	-2.5854	-11.698	543.53
1516.56390	-49.756	-8.8738	-0.89548	-2.5391	-11.691	536.63
1517.06390	-49.143	-8.8746	-0.89561	-2.5052	-11.683	529.87
1517.56390	-48.925	-8.8752	-0.89571	-2.495	-11.675	523.48
1518.06390	-48.786	-8.8758	-0.89581	-2.4896	-11.669	516.83
1518.56390	-48.73	-8.8763	-0.89588	-2.4831	-11.66	510.08
1519.06390	-48.66	-8.8767	-0.89595	-2.4801	-11.654	503.63
1519.56390	-48.601	-8.877	-0.896	-2.4778	-11.645	497.05
1520.06390	-48.693	-8.8773	-0.89605	-2.4818	-11.64	490.85
1520.56390	-48.655	-8.8777	-0.89612	-2.4802	-11.632	484.44
1521.06390	-48.647	-8.8781	-0.89617	-2.4788	-11.624	478.34
1521.56390	-48.855	-8.8784	-0.89622	-2.4878	-11.618	472.08
1522.06390	-48.661	-8.8787	-0.89627	-2.4796	-11.609	465.99
1522.56390	-49.054	-8.879	-0.89632	-2.4995	-11.604	460.15
1523.06390	-49.111	-8.8793	-0.89637	-2.5014	-11.597	454.46
1523.56390	-49.026	-8.8797	-0.89643	-2.4991	-11.59	448.82
1524.06390	-49.072	-8.8799	-0.89647	-2.5013	-11.581	443.09
1524.56390	-49.049	-8.8801	-0.89651	-2.5	-11.575	437.46
1525.06390	-48.99	-8.8804	-0.89654	-2.4946	-11.568	432.35
1525.56390	-48.879	-8.8806	-0.89658	-2.4912	-11.56	427.18
1526.06390	-48.965	-8.8808	-0.89662	-2.494	-11.553	421.96
1526.56390	-48.979	-8.881	-0.89665	-2.4948	-11.545	416.75
1527.06390	-48.986	-8.8812	-0.89668	-2.4976	-11.539	411.75
1527.56390	-48.845	-8.8814	-0.8967	-2.4875	-11.53	406.75
1528.06390	-49.512	-8.8814	-0.89671	-2.5202	-11.524	401.76
1528.56390	-49.308	-8.8816	-0.89674	-2.5154	-11.518	397.45
1529.06390	-49.5	-8.8819	-0.89679	-2.5196	-11.51	393.09
1529.56390	-49.393	-8.882	-0.89682	-2.5165	-11.502	388.82
1530.06390	-49.279	-8.882	-0.89681	-2.5099	-11.494	384.48
1530.56390	-49.337	-8.8822	-0.89683	-2.5111	-11.487	380.22
1531.06390	-49.274	-8.8822	-0.89685	-2.5091	-11.48	375.77
1531.56390	-49.117	-8.8823	-0.89687	-2.4987	-11.473	371.73
1532.06390	-49.207	-8.8825	-0.89689	-2.5063	-11.465	367.75
1532.56390	-48.938	-8.8826	-0.89691	-2.4949	-11.458	363.58
1533.06390	-49.009	-8.8826	-0.89691	-2.4952	-11.452	359.28
1533.56390	-48.916	-8.8827	-0.89694	-2.4917	-11.444	355.19
1534.06390	-48.761	-8.8828	-0.89694	-2.4824	-11.437	350.97
1534.56390	-48.936	-8.8829	-0.89696	-2.4919	-11.431	346.88
1535.06390	-48.545	-8.8829	-0.89696	-2.4743	-11.423	342.7
1535.56390	-48.561	-8.8831	-0.89699	-2.4714	-11.415	338.55
1536.06390	-48.63	-8.8831	-0.89699	-2.4777	-11.409	334.7
1536.56390	-48.405	-8.8831	-0.89699	-2.4632	-11.401	330.46
1537.06390	-48.466	-8.8831	-0.897	-2.4659	-11.395	326.29
1537.56390	-48.393	-8.8831	-0.89701	-2.4659	-11.387	322.3
1538.06390	-48.312	-8.8832	-0.89701	-2.4592	-11.38	318.31
1538.56390	-48.42	-8.8832	-0.89701	-2.4681	-11.372	314.32
1539.06390	-47.99	-8.8831	-0.89701	-2.4479	-11.365	310.3
1539.56390	-48.215	-8.8832	-0.89702	-2.454	-11.358	306.45
1540.06390	-48.204	-8.8832	-0.89703	-2.4558	-11.351	302.52
1540.56390	-47.986	-8.8832	-0.89703	-2.4424	-11.342	298.61
1541.06390	-48.113	-8.8833	-0.89703	-2.4507	-11.336	294.73
1541.56390	-47.779	-8.8833	-0.89704	-2.4354	-11.329	290.98
1542.06390	-47.813	-8.8832	-0.89702	-2.4327	-11.323	287.25
1542.56390	-47.704	-8.8832	-0.897	-2.4295	-11.316	283.59
1543.06390	-47.661	-8.8832	-0.89703	-2.4258	-11.307	280.06
1543.56390	-47.713	-8.8832	-0.89701	-2.4293	-11.299	276.58
1544.06390	-47.516	-8.8832	-0.89701	-2.4232	-11.293	273.21
1544.56390	-47.381	-8.8831	-0.897	-2.4127	-11.286	269.85
1545.06390	-47.238	-8.8832	-0.89701	-2.4055	-11.277	266.65
1545.56390	-47.005	-8.8831	-0.89701	-2.3937	-11.272	263.45
1546.06390	-47.21	-8.8831	-0.897	-2.4009	-11.263	260.27
1546.56390	-47.176	-8.8831	-0.89699	-2.4026	-11.256	257.29
1547.06390	-46.979	-8.883	-0.89699	-2.3913	-11.249	254.44
1547.56390	-47.052	-8.8831	-0.89699	-2.3965	-11.244	251.42
1548.06390	-46.777	-8.8831	-0.89699	-2.3812	-11.238	248.73
1548.56390	-45.92	-8.8829	-0.89696	-2.3366	-11.228	246.12
1549.06390	-45.891	-8.8828	-0.89695	-2.3374	-11.222	243.74
1549.56390	-45.727	-8.8828	-0.89694	-2.3303	-11.215	241.32
1550.06390	-45.925	-8.8828	-0.89694	-2.3356	-11.205	239.1
1550.56390	-45.812	-8.8828	-0.89694	-2.3331	-11.199	236.89
1551.06390	-45.694	-8.8827	-0.89693	-2.3279	-11.191	234.7
1551.56390	-45.806	-8.8827	-0.89692	-2.3335	-11.185	232.71
1552.06390	-45.512	-8.8826	-0.89691	-2.3183	-11.178	230.92
1552.56390	-45.543	-8.8826	-0.89691	-2.3193	-11.171	229.15
1553.06390	-45.233	-8.8826	-0.89691	-2.3055	-11.164	227.29
1553.56390	-45.134	-8.8825	-0.8969	-2.2978	-11.157	225.67
1554.06390	-44.268	-8.8824	-0.89687	-2.2533	-11.15	224.05
1554.56390	-44.12	-8.8823	-0.89685	-2.247	-11.142	222.24
1555.06390	-44.231	-8.8823	-0.89685	-2.2505	-11.134	220.85
1555.56390	-44.142	-8.8822	-0.89684	-2.2507	-11.127	219.37
1556.06390	-44.031	-8.8822	-0.89684	-2.2418	-11.121	217.71
1556.56390	-44.1	-8.8822	-0.89684	-2.2465	-11.113	216.43
1557.06390	-43.696	-8.8821	-0.89683	-2.2284	-11.107	214.84
1557.56390	-43.896	-8.8822	-0.89684	-2.2334	-11.1	213.59
1558.06390	-43.775	-8.8822	-0.89685	-2.2303	-11.092	212.15
1558.56390	-43.617	-8.8821	-0.89684	-2.2202	-11.085	210.8
1559.06390	-43.552	-8.8821	-0.89683	-2.2189	-11.078	209.15
1559.56390	-43.427	-8.8821	-0.89682	-2.2133	-11.07	207.93
1560.06390	-43.426	-8.882	-0.89681	-2.2077	-11.062	206.31
1560.56390	-42.959	-8.8819	-0.8968	-2.1898	-11.056	204.99
1561.06390	-42.14	-8.8817	-0.89678	-2.1448	-11.048	203.39
1561.56390	-42.257	-8.8817	-0.89676	-2.1534	-11.04	201.84
1562.06390	-42.119	-8.8817	-0.89676	-2.1477	-11.033	200.39
1562.56390	-42.276	-8.8816	-0.89675	-2.1516	-11.026	198.86
1563.06390	-42.332	-8.8815	-0.89673	-2.1559	-11.02	197.28
1563.56390	-42.044	-8.8814	-0.89672	-2.1409	-11.014	195.71
1564.06390	-42.206	-8.8814	-0.89671	-2.148	-11.006	194.07
1564.56390	-41.98	-8.8813	-0.8967	-2.1405	-10.998	192.44
1565.06390	-41.972	-8.8812	-0.89669	-2.1357	-10.991	190.67
1565.56390	-41.941	-8.8812	-0.89669	-2.1386	-10.985	188.86
1566.06390	-41.796	-8.8812	-0.89669	-2.1298	-10.978	187.17
1566.56390	-41.832	-8.8811	-0.89668	-2.1278	-10.97	185.6
1567.06390	-41.646	-8.881	-0.89667	-2.1236	-10.963	183.71
1567.56390	-41.544	-8.881	-0.89666	-2.1147	-10.956	181.95
1568.06390	-40.723	-8.8808	-0.89662	-2.0754	-10.947	180.21
1568.56390	-40.306	-8.8807	-0.89661	-2.0519	-10.939	178.43
1569.06390	-40.427	-8.8806	-0.8966	-2.0579	-10.934	176.52
1569.56390	-40.364	-8.8806	-0.89659	-2.0592	-10.928	174.91
1570.06390	-40.337	-8.8805	-0.89657	-2.0545	-10.919	173.04
1570.56390	-40.379	-8.8805	-0.89658	-2.0568	-10.912	171.14
1571.06390	-40.112	-8.8804	-0.89657	-2.0458	-10.905	169.38
1571.56390	-40.241	-8.8805	-0.89657	-2.0486	-10.898	167.64
1572.06390	-40.046	-8.8804	-0.89656	-2.043	-10.89	165.75
1572.56390	-40.025	-8.8804	-0.89655	-2.0375	-10.884	163.99
1573.06390	-40.076	-8.8804	-0.89655	-2.0413	-10.877	162.08
1573.56390	-39.836	-8.8803	-0.89653	-2.0281	-10.869	160.26
1574.06390	-39.801	-8.8802	-0.89651	-2.0267	-10.862	158.58
1574.56390	-39.766	-8.8802	-0.89651	-2.0286	-10.855	156.75
1575.06390	-39.629	-8.8801	-0.89651	-2.0195	-10.847	155.09
1575.56390	-39.706	-8.8801	-0.8965	-2.0223	-10.839	153.24
1576.06390	-39.424	-8.8801	-0.89649	-2.0088	-10.834	151.46
1576.56390	-39.272	-8.88	-0.89648	-1.9993	-10.824	149.64
1577.06390	-38.211	-8.8797	-0.89644	-1.9483	-10.82	147.85
1577.56390	-38.02	-8.8796	-0.89641	-1.937	-10.812	146.19
1578.06390	-38.119	-8.8795	-0.8964	-1.9407	-10.805	144.5
1578.56390	-37.955	-8.8795	-0.8964	-1.9353	-10.798	142.82
1579.06390	-37.987	-8.8794	-0.89639	-1.9328	-10.791	141.17
1579.56390	-37.869	-8.8794	-0.89638	-1.931	-10.784	139.57
1580.06390	-37.84	-8.8794	-0.89638	-1.9246	-10.776	137.89
1580.56390	-37.803	-8.8793	-0.89637	-1.926	-10.77	136.34
1581.06390	-37.619	-8.8792	-0.89635	-1.9162	-10.762	134.79
1581.56390	-37.624	-8.8792	-0.89635	-1.9166	-10.754	133.18
1582.06390	-37.354	-8.8792	-0.89635	-1.9049	-10.748	131.65
1582.56390	-37.418	-8.8791	-0.89634	-1.9056	-10.742	130.2
1583.06390	-37.29	-8.8791	-0.89633	-1.9015	-10.734	128.69
1583.56390	-37.153	-8.879	-0.89633	-1.8946	-10.727	127.19
1584.06390	-37.205	-8.879	-0.89631	-1.8939	-10.72	125.7
1584.56390	-36.997	-8.879	-0.89631	-1.8859	-10.713	124.37
1585.06390	-36.965	-8.8789	-0.89631	-1.8815	-10.703	123.04
1585.56390	-36.955	-8.8788	-0.8963	-1.8849	-10.696	121.68
1586.06390	-36.685	-8.8787	-0.89627	-1.8691	-10.69	120.36
1586.56390	-36.776	-8.8787	-0.89627	-1.8766	-10.682	119.04
1587.06390	-36.474	-8.8786	-0.89627	-1.8608	-10.676	117.71
1587.56390	-36.552	-8.8786	-0.89626	-1.8596	-10.667	116.61
1588.06390	-36.356	-8.8786	-0.89626	-1.8544	-10.662	115.38
1588.56390	-36.223	-8.8786	-0.89626	-1.8461	-10.654	114.24
1589.06390	-36.235	-8.8785	-0.89625	-1.8456	-10.648	113.08
1589.56390	-36.034	-8.8785	-0.89624	-1.8376	-10.642	111.93
1590.06390	-35.882	-8.8784	-0.89623	-1.828	-10.633	110.82
1590.56390	-35.827	-8.8784	-0.89622	-1.8261	-10.626	109.76
1591.06390	-35.511	-8.8784	-0.89623	-1.8079	-10.618	108.67
1591.56390	-34.785	-8.8781	-0.89618	-1.7735	-10.611	107.57
1592.06390	-34.228	-8.8778	-0.89614	-1.7445	-10.605	106.46
1592.56390	-34.056	-8.8778	-0.89613	-1.7337	-10.597	105.34
1593.06390	-33.598	-8.8774	-0.89608	-1.715	-10.59	104.4
1593.56390	-33.267	-8.8772	-0.89603	-1.6943	-10.584	103.22
1594.06390	-33.116	-8.8769	-0.89598	-1.6883	-10.575	102.38
1594.56390	-32.625	-8.8767	-0.89595	-1.6639	-10.568	101.34
1595.06390	-32.447	-8.8764	-0.89591	-1.6532	-10.562	100.46
1595.56390	-32.194	-8.8761	-0.89587	-1.6435	-10.555	99.524
1596.06390	-31.887	-8.876	-0.89583	-1.6246	-10.546	98.547
1596.56390	-31.754	-8.8757	-0.8958	-1.6183	-10.539	97.775
1597.06390	-31.408	-8.8756	-0.89577	-1.6012	-10.532	96.954
1597.56390	-31.395	-8.8753	-0.89573	-1.6014	-10.525	96.003
1598.06390	-30.957	-8.8751	-0.89568	-1.581	-10.518	95.204
1598.56390	-30.925	-8.8749	-0.89566	-1.5758	-10.512	94.373
1599.06390	-30.825	-8.8747	-0.89562	-1.5732	-10.504	93.433
1599.56390	-30.421	-8.8745	-0.89558	-1.5496	-10.497	92.667
1600.06390	-30.347	-8.8743	-0.89555	-1.549	-10.489	91.902
1600.56390	-30.004	-8.8741	-0.89552	-1.5315	-10.483	91.197
1601.06390	-29.976	-8.874	-0.8955	-1.5273	-10.475	90.408
1601.56390	-29.695	-8.8739	-0.89549	-1.5127	-10.469	89.652
1602.06390	-29.639	-8.8737	-0.89546	-1.5096	-10.462	88.964
1602.56390	-29.545	-8.8735	-0.89542	-1.5045	-10.455	88.247
1603.06390	-29.227	-8.8734	-0.89541	-1.4923	-10.447	87.53
1603.56390	-29.158	-8.8732	-0.89537	-1.4855	-10.439	86.885
1604.06390	-28.934	-8.873	-0.89534	-1.4787	-10.433	86.212
1604.56390	-28.652	-8.8729	-0.89532	-1.4601	-10.427	85.519
1605.06390	-28.692	-8.8728	-0.8953	-1.4655	-10.42	84.957
1605.56390	-28.332	-8.8726	-0.89529	-1.4441	-10.411	84.339
1606.06390	-28.318	-8.8725	-0.89525	-1.4416	-10.404	83.626
1606.56390	-28.124	-8.8723	-0.89523	-1.4352	-10.396	83.005
1607.06390	-27.972	-8.8722	-0.89521	-1.4255	-10.389	82.356
1607.56390	-28.036	-8.8721	-0.89518	-1.4297	-10.383	81.827
1608.06390	-27.564	-8.872	-0.89518	-1.4073	-10.375	81.278
1608.56390	-27.585	-8.8719	-0.89517	-1.4067	-10.369	80.636
1609.06390	-27.408	-8.8718	-0.89514	-1.3982	-10.361	80.081
1609.56390	-27.15	-8.8717	-0.89512	-1.385	-10.355	79.528
1610.06390	-27.135	-8.8715	-0.8951	-1.3845	-10.347	78.967
1610.56390	-26.888	-8.8715	-0.8951	-1.3731	-10.34	78.406
1611.06390	-26.976	-8.8714	-0.89509	-1.3747	-10.332	77.848
1611.56390	-26.669	-8.8713	-0.89507	-1.3626	-10.326	77.395
1612.06390	-26.627	-8.8712	-0.89505	-1.3566	-10.319	76.872
1612.56390	-26.552	-8.8711	-0.89504	-1.3548	-10.311	76.374
1613.06390	-26.237	-8.871	-0.89502	-1.3398	-10.305	75.783
1613.56390	-26.265	-8.8709	-0.89501	-1.3381	-10.297	75.372
1614.06390	-26.113	-8.8709	-0.895	-1.3317	-10.289	74.951
1614.56390	-25.829	-8.8707	-0.89498	-1.3154	-10.282	74.493
1615.06390	-25.824	-8.8707	-0.89497	-1.3186	-10.275	74.03
1615.56390	-25.612	-8.8706	-0.89496	-1.3078	-10.269	73.496
1616.06390	-25.55	-8.8705	-0.89493	-1.3037	-10.262	73.179
1616.56390	-25.452	-8.8704	-0.89493	-1.3039	-10.254	72.62
1617.06390	-25.368	-8.8703	-0.89491	-1.2934	-10.245	72.075
1617.56390	-25.19	-8.8702	-0.89489	-1.2875	-10.24	71.599
1618.06390	-24.949	-8.8702	-0.89489	-1.2748	-10.232	71.237
1618.56390	-25.134	-8.8701	-0.89488	-1.282	-10.226	70.826
1619.06390	-24.767	-8.87	-0.89486	-1.2644	-10.219	70.436
1619.56390	-24.726	-8.8699	-0.89484	-1.2606	-10.212	70.043
1620.06390	-24.698	-8.8698	-0.89484	-1.2602	-10.205	69.591
1620.56390	-24.481	-8.8697	-0.89482	-1.25	-10.197	69.199
1621.06390	-24.478	-8.8696	-0.8948	-1.2486	-10.189	68.813
1621.56390	-24.289	-8.8696	-0.8948	-1.2428	-10.183	68.506
1622.06390	-24.142	-8.8696	-0.89479	-1.2318	-10.176	68.191
1622.56390	-24.064	-8.8694	-0.89477	-1.2285	-10.168	67.815
1623.06390	-23.829	-8.8693	-0.89475	-1.2173	-10.16	67.396
1623.56390	-23.9	-8.8692	-0.89473	-1.22	-10.154	67.002
1624.06390	-23.666	-8.8691	-0.8947	-1.2063	-10.147	66.662
1624.56390	-23.549	-8.869	-0.89469	-1.1965	-10.139	66.35
1625.06390	-23.672	-8.8689	-0.89467	-1.2076	-10.133	65.975
1625.56390	-23.316	-8.8689	-0.89467	-1.1907	-10.126	65.668
1626.06390	-23.337	-8.8688	-0.89466	-1.1902	-10.118	65.285
1626.56390	-23.218	-8.8688	-0.89465	-1.1848	-10.111	65.027
1627.06390	-23.015	-8.8687	-0.89464	-1.1752	-10.104	64.747
1627.56390	-23.004	-8.8686	-0.89462	-1.173	-10.096	64.367
1628.06390	-22.728	-8.8685	-0.89461	-1.1605	-10.09	64.089
1628.56390	-22.752	-8.8685	-0.89461	-1.1561	-10.083	63.78
1629.06390	-22.623	-8.8685	-0.8946	-1.1541	-10.075	63.529
1629.56390	-22.411	-8.8684	-0.89458	-1.1426	-10.068	63.168
1630.06390	-22.459	-8.8684	-0.89459	-1.1459	-10.061	62.838
1630.56390	-22.115	-8.8683	-0.89457	-1.1304	-10.054	62.621
1631.06390	-22.138	-8.8682	-0.89457	-1.1271	-10.047	62.376
1631.56390	-22.064	-8.8681	-0.89455	-1.1294	-10.038	62.109
1632.06390	-21.858	-8.868	-0.89452	-1.1143	-10.032	61.855
1632.56390	-21.843	-8.868	-0.89453	-1.1146	-10.026	61.306
1633.06390	-21.66	-8.8679	-0.8945	-1.1069	-10.018	61.197
1633.56390	-21.546	-8.8678	-0.8945	-1.0976	-10.011	60.807
1634.06390	-21.615	-8.8677	-0.89448	-1.1028	-10.004	60.542
1634.56390	-21.339	-8.8677	-0.89447	-1.0897	-9.9977	60.223
1635.06390	-21.408	-8.8676	-0.89446	-1.0912	-9.9902	59.891
1635.56390	-21.163	-8.8676	-0.89445	-1.082	-9.9824	59.908
1636.06390	-21.101	-8.8675	-0.89445	-1.074	-9.9758	59.495
1636.56390	-20.966	-8.8675	-0.89444	-1.0722	-9.9687	59.264
1637.06390	-20.746	-8.8674	-0.89443	-1.0599	-9.9608	59.152
1637.56390	-20.702	-8.8673	-0.89441	-1.0572	-9.9544	58.934
1638.06390	-20.612	-8.8672	-0.89441	-1.0559	-9.9471	58.539
1638.56390	-20.406	-8.8671	-0.89439	-1.0398	-9.9394	58.344
1639.06390	-20.532	-8.8671	-0.89439	-1.0484	-9.9314	58.086
1639.56390	-20.176	-8.867	-0.89438	-1.033	-9.9245	57.832
1640.06390	-20.335	-8.867	-0.89437	-1.0359	-9.9176	57.626
1640.56390	-20.146	-8.8669	-0.89434	-1.0291	-9.9125	57.401
1641.06390	-19.969	-8.8669	-0.89435	-1.0202	-9.9041	57.19
1641.56390	-20.059	-8.8668	-0.89435	-1.0235	-9.8973	56.946
1642.06390	-19.771	-8.8668	-0.89433	-1.0098	-9.8916	56.689
1642.56390	-19.738	-8.8667	-0.89432	-1.006	-9.8819	56.458
1643.06390	-19.823	-8.8666	-0.8943	-1.0129	-9.8764	56.261
1643.56390	-19.661	-8.8665	-0.89429	-1.0039	-9.8694	55.98
1644.06390	-19.661	-8.8664	-0.89427	-1.0016	-9.862	55.878
1644.56390	-19.588	-8.8663	-0.89426	-1.0021	-9.8532	55.623
1645.06390	-19.3	-8.8663	-0.89426	-0.98288	-9.8472	55.415
1645.56390	-19.402	-8.8662	-0.89425	-0.99039	-9.8395	55.131
1646.06390	-19.184	-8.8661	-0.89423	-0.98028	-9.8314	54.972
1646.56390	-19.193	-8.8661	-0.89422	-0.9784	-9.8256	54.765
1647.06390	-19.21	-8.866	-0.89421	-0.98143	-9.8181	54.544
1647.56390	-18.951	-8.8658	-0.89417	-0.96747	-9.8111	54.323
1648.06390	-18.937	-8.8658	-0.89417	-0.96669	-9.8027	54.149
1648.56390	-18.765	-8.8657	-0.89416	-0.96369	-9.796	53.886
1649.06390	-18.713	-8.8656	-0.89414	-0.95238	-9.7883	53.769
1649.56390	-18.657	-8.8656	-0.89413	-0.95315	-9.7821	53.519
1650.06390	-18.376	-8.8655	-0.89412	-0.93842	-9.7747	53.32
1650.56390	-18.543	-8.8654	-0.89409	-0.94698	-9.7683	53.181
1651.06390	-18.228	-8.8653	-0.89408	-0.93218	-9.7606	52.952
1651.56390	-18.324	-8.8651	-0.89406	-0.93374	-9.7545	52.964
1652.06390	-18.281	-8.8651	-0.89405	-0.9342	-9.7453	52.63
1652.56390	-17.879	-8.865	-0.89404	-0.91646	-9.7388	52.444
1653.06390	-18.011	-8.865	-0.89403	-0.91984	-9.7327	52.282
1653.56390	-17.955	-8.8649	-0.89402	-0.92042	-9.7245	52.134
1654.06390	-17.686	-8.8648	-0.89401	-0.90414	-9.7157	51.904
1654.56390	-17.812	-8.8647	-0.89399	-0.90938	-9.7111	51.794
1655.06390	-17.599	-8.8647	-0.89398	-0.90012	-9.7037	51.589
1655.56390	-17.618	-8.8646	-0.89396	-0.89834	-9.6966	51.499
1656.06390	-17.552	-8.8645	-0.89395	-0.89735	-9.6894	51.364
1656.56390	-17.19	-8.8645	-0.89395	-0.87821	-9.6819	51.115
1657.06390	-17.34	-8.8644	-0.89394	-0.88382	-9.674	50.97
1657.56390	-17.058	-8.8643	-0.89392	-0.87309	-9.6676	50.802
1658.06390	-17.145	-8.8642	-0.8939	-0.8755	-9.6604	50.677
1658.56390	-17.084	-8.8642	-0.8939	-0.87269	-9.6536	50.531
1659.06390	-16.835	-8.8641	-0.89388	-0.86075	-9.6457	50.319
1659.56390	-16.868	-8.8641	-0.89389	-0.85986	-9.6376	50.202
1660.06390	-16.756	-8.864	-0.89387	-0.85934	-9.6319	50.06
1660.56390	-16.592	-8.8639	-0.89385	-0.84879	-9.6244	49.982
1661.06390	-16.607	-8.8638	-0.89383	-0.84832	-9.6164	49.784
1661.56390	-16.388	-8.8637	-0.89383	-0.83905	-9.6104	49.651
1662.06390	-16.259	-8.8636	-0.89381	-0.82997	-9.6017	49.36
1662.56390	-16.353	-8.8636	-0.8938	-0.83678	-9.5955	49.292
