Time(sec)	Force(kgf)	LGauge(mm)	Strain	Stress(MPa)	Stroke(mm)	TC1(C)
0.00000	-122.08	-1.4473e-05	8.2909e-06	-15.224	0.087652	48.683
1.00000	-121.7	-2.3454e-05	7.2461e-07	-15.199	0.088321	48.58
2.00000	-121.61	-0.00014846	-8.359e-06	-15.186	0.087906	48.497
3.00000	-124.97	-0.0010942	-7.0861e-05	-15.606	0.087209	48.422
4.00000	-125.35	-0.0012496	-8.3551e-05	-15.648	0.087661	48.372
5.00000	-124.96	-0.0014003	-9.3071e-05	-15.6	0.088417	48.255
6.00000	-124.74	-0.0014473	-9.4432e-05	-15.57	0.088725	48.183
7.00000	-124.47	-0.0014365	-9.3672e-05	-15.541	0.090692	48.096
8.00000	-124.24	-0.0015022	-9.9376e-05	-15.517	0.092397	48.015
9.00000	-124.05	-0.0015386	-0.00010386	-15.488	0.092165	47.937
10.00000	-124.04	-0.0014289	-9.6646e-05	-15.485	0.091367	47.85
11.00000	-130.8	-0.0012222	-8.1888e-05	-16.331	0.092965	48.265
12.00000	-143.88	-0.00021513	-1.5118e-05	-17.963	0.092633	51.851
13.00000	-155.21	0.00090301	5.957e-05	-19.381	0.093385	58.638
14.00000	-162.22	0.00192	0.00012736	-20.259	0.093179	66.068
15.00000	-165.73	0.0029253	0.00019339	-20.698	0.093522	72.749
15.52930	-167.08	0.0035051	0.00023265	-20.867	0.093636	75.845
16.52930	-169.32	0.0047702	0.00031677	-21.154	0.091885	80.871
16.54810	-169.33	0.0047987	0.00031866	-21.156	0.091789	80.955
17.54810	-170.43	0.0065412	0.00043435	-21.293	0.09148	85.794
18.54810	-171.43	0.008564	0.00057099	-21.419	0.092495	90.558
19.54810	-172.2	0.010843	0.00072462	-21.518	0.092172	95.605
20.54810	-172.95	0.013029	0.00086927	-21.613	0.091846	100.88
21.54810	-173.67	0.01508	0.0010042	-21.704	0.091817	106.07
22.54810	-174.33	0.017138	0.001143	-21.794	0.09187	111.05
23.54810	-174.64	0.019309	0.0012887	-21.838	0.091065	115.76
24.54810	-175.25	0.02156	0.0014379	-21.915	0.090375	120.56
25.54810	-175.69	0.023981	0.0015998	-21.972	0.091492	125.39
26.54810	-176.1	0.02622	0.0017492	-22.022	0.090194	130.43
27.54810	-176.52	0.028567	0.0019066	-22.081	0.09029	135.6
28.54810	-176.9	0.031018	0.0020678	-22.136	0.090047	140.66
29.54810	-177.15	0.033522	0.0022327	-22.171	0.089901	145.6
30.54810	-177.63	0.036012	0.0023981	-22.233	0.089027	150.61
31.54810	-177.77	0.038742	0.0025799	-22.261	0.08868	155.55
32.54810	-177.95	0.041406	0.0027573	-22.279	0.089171	160.61
33.54810	-178.12	0.043975	0.0029281	-22.304	0.088282	165.6
34.54810	-178.26	0.046997	0.0031282	-22.33	0.088589	170.61
35.54810	-178.36	0.049827	0.0033148	-22.349	0.088174	175.82
36.54810	-178.46	0.052607	0.0034997	-22.369	0.087814	180.81
37.54810	-178.65	0.055424	0.0036865	-22.392	0.086912	185.71
38.54810	-178.83	0.058113	0.003866	-22.413	0.087357	190.58
39.54810	-178.71	0.060889	0.0040481	-22.403	0.086098	195.28
40.54810	-178.69	0.064131	0.0042661	-22.409	0.086214	200.24
41.54810	-178.84	0.067367	0.0044808	-22.432	0.086654	205.39
42.54810	-179.07	0.070504	0.004688	-22.469	0.085582	210.7
43.54810	-179.18	0.073462	0.0048869	-22.487	0.084955	215.88
44.54810	-179.24	0.076525	0.0050906	-22.497	0.085129	220.78
45.54810	-179.28	0.079764	0.0053052	-22.505	0.085484	225.65
46.54810	-179.22	0.082869	0.0055094	-22.502	0.083917	230.86
47.54810	-179.29	0.085742	0.0057029	-22.515	0.084928	236
48.54810	-179.5	0.088571	0.0058901	-22.546	0.082587	241.04
49.54810	-179.67	0.091236	0.0060657	-22.573	0.083895	246
50.54810	-179.64	0.093861	0.0062387	-22.574	0.08339	250.79
51.54810	-179.5	0.096956	0.0064459	-22.56	0.083822	255.64
52.54810	-179.44	0.10022	0.0066622	-22.559	0.082137	260.66
53.54810	-179.6	0.10327	0.0068638	-22.581	0.083771	265.73
54.54810	-179.77	0.10633	0.0070645	-22.61	0.08353	270.87
55.54810	-179.8	0.10932	0.0072623	-22.617	0.082201	275.87
56.48640	-179.98	0.11218	0.0074522	-22.642	0.082887	280.52
57.48640	-180.1	0.11531	0.0076596	-22.655	0.082349	285.57
58.48640	-180.12	0.11861	0.007878	-22.666	0.082569	290.61
59.48640	-180.02	0.12172	0.0080834	-22.665	0.082114	295.76
60.48640	-180.11	0.12463	0.0082767	-22.678	0.082341	300.8
60.93610	-180.2	0.1259	0.0083601	-22.689	0.08247	303.03
61.93610	-180.38	0.12874	0.0085464	-22.713	0.082024	307.99
62.93610	-180.28	0.13194	0.0087566	-22.713	0.081866	312.89
63.93610	-180.38	0.1352	0.0089721	-22.731	0.08156	317.83
64.93610	-180.58	0.13833	0.0091791	-22.756	0.081715	322.89
65.93610	-180.7	0.14129	0.0093746	-22.775	0.081374	327.85
66.93610	-180.75	0.1444	0.0095799	-22.785	0.081247	332.84
67.93610	-180.61	0.14771	0.0097986	-22.771	0.081954	337.85
68.93610	-180.64	0.15089	0.01001	-22.78	0.081059	342.92
69.93610	-180.81	0.15384	0.010208	-22.809	0.082072	347.83
70.93610	-181.08	0.15706	0.010416	-22.846	0.081103	352.66
71.93610	-181.01	0.16006	0.010614	-22.842	0.082011	357.59
72.93610	-181.01	0.16335	0.010832	-22.847	0.081504	362.56
73.93610	-181.05	0.16684	0.011064	-22.854	0.08053	367.6
74.93610	-181.05	0.17	0.011272	-22.862	0.08107	372.75
75.93610	-181.05	0.17345	0.011499	-22.87	0.081813	377.82
76.93610	-181.16	0.17661	0.01171	-22.887	0.081516	382.96
77.93610	-181.28	0.17972	0.011914	-22.906	0.081223	387.97
78.93610	-181.38	0.18289	0.012122	-22.921	0.082011	392.93
79.93610	-181.38	0.18608	0.012332	-22.928	0.080866	397.9
80.93610	-181.36	0.18945	0.012553	-22.931	0.081187	402.82
81.93610	-181.4	0.19249	0.012753	-22.942	0.081672	407.77
82.93610	-181.55	0.19549	0.01295	-22.966	0.082195	412.78
83.93610	-181.6	0.1989	0.013174	-22.977	0.081676	417.72
84.93610	-181.71	0.20219	0.013391	-22.995	0.081761	422.73
85.93610	-181.7	0.20541	0.013603	-22.999	0.081751	427.73
86.93610	-181.8	0.20876	0.013822	-23.017	0.081228	432.73
87.93610	-181.88	0.21217	0.014046	-23.031	0.08183	437.82
88.93610	-181.97	0.2154	0.014259	-23.047	0.081292	442.78
89.93610	-182.04	0.21847	0.01446	-23.06	0.082188	447.8
90.93610	-182.13	0.22169	0.014672	-23.078	0.081609	452.72
91.93610	-182.05	0.225	0.014889	-23.07	0.082125	457.65
92.93610	-182.22	0.22799	0.015084	-23.103	0.081812	462.76
93.93610	-182.21	0.23115	0.015294	-23.103	0.08199	467.83
94.93610	-182.38	0.23421	0.015495	-23.13	0.082657	472.85
95.93610	-182.42	0.23701	0.015676	-23.138	0.082384	477.76
96.93610	-182.39	0.23995	0.01587	-23.142	0.082947	482.57
97.45340	-182.57	0.24149	0.015972	-23.163	0.082966	485.12
98.45340	-182.48	0.24501	0.016204	-23.155	0.083157	490.11
99.45340	-182.51	0.24849	0.016435	-23.165	0.082693	495.2
100.08270	-182.62	0.25054	0.016567	-23.18	0.084258	498.48
101.08270	-182.58	0.25377	0.01678	-23.182	0.083729	503.52
102.08270	-182.58	0.25707	0.016996	-23.187	0.08374	508.51
103.08270	-182.62	0.26011	0.017195	-23.195	0.084611	513.54
104.08270	-182.71	0.26308	0.01739	-23.215	0.08362	518.49
105.08270	-182.86	0.26646	0.017612	-23.24	0.084116	523.51
106.08270	-182.95	0.26962	0.017819	-23.252	0.084442	528.55
107.08270	-182.92	0.2728	0.018029	-23.254	0.08427	533.43
108.08270	-182.9	0.27599	0.018235	-23.26	0.084459	538.45
109.08270	-183.05	0.27914	0.018441	-23.286	0.083653	543.38
110.08270	-183.12	0.28239	0.018652	-23.296	0.085141	548.41
111.08270	-183.19	0.28558	0.018861	-23.312	0.084361	553.41
112.08270	-183.26	0.28874	0.019067	-23.321	0.084174	558.47
113.08270	-183.29	0.29177	0.019265	-23.33	0.085585	563.61
114.08270	-183.41	0.29461	0.019449	-23.352	0.085367	568.52
115.08270	-183.48	0.29765	0.019648	-23.363	0.086191	573.48
116.08270	-183.6	0.30071	0.019849	-23.388	0.085868	578.39
117.08270	-183.7	0.30387	0.020056	-23.4	0.085583	583.33
118.08270	-183.46	0.3072	0.020272	-23.37	0.085452	588.31
119.08270	-183.43	0.31058	0.020495	-23.377	0.085513	593.32
120.08270	-183.45	0.31394	0.020714	-23.391	0.084987	598.3
121.08270	-183.62	0.31716	0.020924	-23.416	0.086191	603.45
122.08270	-183.74	0.32026	0.021125	-23.432	0.086905	608.42
123.08270	-183.87	0.32331	0.021326	-23.453	0.087225	613.42
124.08270	-183.91	0.3262	0.021515	-23.462	0.085895	618.34
125.08270	-183.97	0.32901	0.0217	-23.478	0.086797	623.29
126.08270	-184.05	0.3324	0.021921	-23.492	0.087365	628.3
127.08270	-184.1	0.3358	0.022145	-23.503	0.086772	633.37
128.08270	-184.17	0.33885	0.022344	-23.506	0.086847	638.57
129.08270	-184.25	0.34174	0.022531	-23.528	0.087009	643.66
130.08270	-184.28	0.34479	0.02273	-23.543	0.086985	648.66
131.08270	-184.36	0.348	0.022939	-23.563	0.087659	653.71
132.08270	-184.46	0.35104	0.023136	-23.574	0.087542	658.73
133.08270	-184.62	0.35363	0.023304	-23.597	0.086991	663.66
134.08270	-184.76	0.35609	0.023464	-23.615	0.087402	668.3
135.08270	-184.74	0.35902	0.023655	-23.623	0.088056	673.01
136.08270	-184.71	0.36206	0.023853	-23.621	0.087508	677.82
137.08270	-184.82	0.36545	0.024071	-23.642	0.088009	682.9
138.08270	-184.98	0.36878	0.024289	-23.664	0.088448	688.1
138.39230	-184.89	0.3697	0.024348	-23.653	0.087959	689.67
139.39230	-185.04	0.37263	0.024539	-23.679	0.088419	694.97
139.41800	-185.07	0.37269	0.024543	-23.685	0.088565	695.09
140.41800	-185.25	0.37528	0.02471	-23.711	0.089377	700.25
141.41800	-185.34	0.37803	0.02489	-23.725	0.08978	705.15
142.41800	-185.24	0.38082	0.02507	-23.72	0.089019	710.15
143.41800	-185.34	0.38378	0.025262	-23.737	0.090744	715.09
144.41800	-185.42	0.38662	0.025449	-23.751	0.089086	720.08
145.41800	-185.6	0.38908	0.025608	-23.778	0.089494	725
146.41800	-186.29	0.39047	0.025698	-23.87	0.089778	730.04
147.41800	-186.95	0.39101	0.025732	-23.953	0.089501	734.82
148.41800	-185.25	0.39129	0.025752	-23.729	0.089706	739.56
149.41800	-181.87	0.39131	0.025756	-23.301	0.089896	743.87
150.41800	-177.25	0.39134	0.025757	-22.71	0.089767	747.01
151.41800	-172.33	0.39148	0.025765	-22.08	0.091534	748.35
152.41800	-165.5	0.39132	0.025755	-21.206	0.090525	748.32
153.41800	-162.11	0.39132	0.025758	-20.767	0.090307	750.81
154.41800	-180.79	0.39305	0.025871	-23.165	0.090684	765.25
155.41800	-184.81	0.39401	0.025934	-23.677	0.091143	787.91
156.41800	-166.77	0.39111	0.025745	-21.364	0.091764	797.95
157.41800	-151.79	0.38687	0.02547	-19.44	0.092004	799.54
158.41800	-147.06	0.38468	0.025323	-18.839	0.091919	798.61
159.41800	-146.77	0.3844	0.025307	-18.799	0.091993	798.9
160.41800	-133.56	0.38659	0.025447	-17.107	0.092761	800.96
161.41800	-100.13	0.39348	0.025895	-12.833	0.092675	804.55
162.41800	-98.684	0.39671	0.026105	-12.646	0.092726	809.09
163.41800	-98.507	0.40019	0.02633	-12.633	0.092434	814.07
164.41800	-98.41	0.40358	0.02655	-12.625	0.092578	819.27
165.41800	-98.533	0.40693	0.026769	-12.642	0.093172	824.35
166.41800	-98.634	0.41037	0.02699	-12.658	0.092924	829.49
167.41800	-98.678	0.4139	0.027218	-12.66	0.092271	834.6
168.41800	-98.52	0.41758	0.027458	-12.645	0.092278	839.66
169.41800	-98.507	0.42112	0.02769	-12.646	0.093852	844.81
170.41800	-98.681	0.42447	0.027904	-12.671	0.09395	849.78
171.41800	-98.656	0.42798	0.028133	-12.678	0.09337	854.76
172.41800	-98.649	0.43163	0.028368	-12.681	0.093701	859.8
173.41800	-98.762	0.43525	0.028605	-12.69	0.094148	864.85
174.41800	-98.784	0.43876	0.028833	-12.691	0.093061	869.86
175.41800	-98.727	0.44259	0.029081	-12.689	0.093726	874.84
176.41800	-98.717	0.44634	0.029323	-12.694	0.093654	879.92
177.41800	-98.675	0.45012	0.029567	-12.69	0.09381	885
178.41800	-98.793	0.45363	0.029797	-12.709	0.093413	889.88
179.32790	-98.939	0.45699	0.030016	-12.729	0.092185	894.49
180.32790	-98.871	0.46057	0.030248	-12.723	0.092595	899.51
181.32790	-98.944	0.46405	0.030471	-12.732	0.093107	904.45
182.32790	-99.038	0.46793	0.030721	-12.751	0.093024	909.5
183.32790	-99.049	0.4716	0.030958	-12.762	0.093718	914.58
184.32790	-99.197	0.47553	0.031213	-12.78	0.093049	919.62
184.86790	-99.083	0.47763	0.031347	-12.769	0.092606	922.32
185.86790	-99.183	0.48142	0.031591	-12.782	0.092367	927.36
186.86790	-99.203	0.48516	0.031832	-12.791	0.092699	932.36
187.86790	-99.285	0.4888	0.032068	-12.806	0.09187	937.29
188.86790	-99.284	0.49247	0.032304	-12.805	0.092139	942.28
189.86790	-99.282	0.49579	0.032517	-12.804	0.09271	947.32
190.86790	-99.412	0.4994	0.032751	-12.831	0.093456	952.47
191.86790	-99.515	0.5028	0.032969	-12.845	0.093329	957.42
192.86790	-99.705	0.5065	0.033207	-12.871	0.092688	962.42
193.86790	-99.707	0.50997	0.033432	-12.875	0.093304	967.52
194.86790	-99.79	0.51328	0.033648	-12.878	0.09301	972.49
195.86790	-99.737	0.51674	0.03387	-12.88	0.092724	977.29
196.86790	-99.662	0.52018	0.034092	-12.873	0.093295	982.2
197.86790	-99.779	0.52363	0.034314	-12.897	0.093387	987.17
198.86790	-99.852	0.52701	0.034532	-12.909	0.093475	992.27
199.86790	-99.946	0.53018	0.034738	-12.919	0.092849	997.28
200.86790	-99.906	0.53326	0.034934	-12.921	0.093515	1002.2
201.86790	-99.951	0.53633	0.035131	-12.93	0.093559	1007.3
202.86790	-100.16	0.53916	0.035314	-12.96	0.092744	1012.4
203.86790	-100.38	0.54179	0.035486	-12.989	0.09341	1017.4
204.86790	-100.44	0.54464	0.03567	-12.995	0.093308	1022.4
205.86790	-100.42	0.54741	0.035848	-12.994	0.092527	1027.4
206.86790	-100.52	0.54988	0.036007	-13.009	0.093011	1032.6
207.86790	-100.52	0.5522	0.036157	-13.012	0.092165	1037.6
208.86790	-100.78	0.55431	0.03629	-13.05	0.093321	1042.5
209.86790	-100.93	0.55616	0.036408	-13.066	0.092989	1047.4
210.86790	-100.97	0.5578	0.036514	-13.073	0.092595	1052.6
211.86790	-101.33	0.55913	0.036597	-13.121	0.092671	1057.4
212.86790	-101.58	0.56024	0.036667	-13.161	0.093306	1062.5
213.86790	-102.01	0.56095	0.036713	-13.216	0.093887	1067.5
214.86790	-102.62	0.56145	0.036746	-13.292	0.093462	1072.5
215.86790	-102.77	0.56157	0.036753	-13.31	0.092665	1077.5
216.86790	-102.02	0.56163	0.036758	-13.216	0.092456	1082.4
217.86790	-101.23	0.56165	0.036759	-13.113	0.093837	1087.4
218.86790	-99.969	0.56169	0.036761	-12.949	0.092388	1092.4
219.86790	-98.383	0.56174	0.036766	-12.745	0.092916	1097.1
220.37320	-97.544	0.56175	0.036766	-12.633	0.093142	1099.6
221.37320	-96.268	0.5618	0.036771	-12.47	0.092991	1104.6
222.37320	-94.903	0.56193	0.036778	-12.293	0.093169	1109.7
223.37320	-93.282	0.56188	0.036774	-12.081	0.092075	1114.9
223.91370	-92.107	0.56182	0.036773	-11.927	0.092857	1117.7
224.91370	-90.257	0.56179	0.036771	-11.689	0.094112	1122.8
225.91370	-88.518	0.56178	0.03677	-11.467	0.093695	1127.8
226.91370	-86.836	0.5617	0.036764	-11.244	0.093833	1132.8
227.91370	-85.247	0.56154	0.036755	-11.035	0.092827	1137.8
228.91370	-83.672	0.56148	0.03675	-10.837	0.093959	1142.8
229.91370	-82.152	0.56121	0.036735	-10.644	0.09364	1147.8
230.91370	-80.861	0.56092	0.036716	-10.477	0.093498	1152.8
231.91370	-79.468	0.5608	0.036708	-10.298	0.092891	1157.7
232.91370	-78.202	0.56059	0.036695	-10.129	0.09305	1162.9
233.91370	-77.033	0.56042	0.036682	-9.9749	0.093605	1167.8
234.91370	-76.084	0.56042	0.036682	-9.8529	0.094124	1172.7
235.91370	-75.039	0.56037	0.03668	-9.723	0.093876	1177.8
236.91370	-74.21	0.56014	0.036667	-9.6136	0.093413	1182.8
237.91370	-73.554	0.55997	0.036652	-9.5263	0.093036	1187.8
238.91370	-72.789	0.55976	0.036638	-9.4271	0.093055	1192.9
239.91370	-72.102	0.55962	0.03663	-9.3343	0.093667	1197.9
240.91370	-70.333	0.55877	0.036574	-9.1101	0.092445	1201.9
241.91370	-67.665	0.5569	0.036454	-8.7664	0.092455	1203.1
242.91370	-65.251	0.55534	0.036351	-8.4507	0.094006	1202.8
243.91370	-63.41	0.55449	0.036296	-8.2119	0.093808	1201.9
244.91370	-62.753	0.55383	0.036255	-8.1253	0.093507	1201.3
245.91370	-62.716	0.55333	0.036223	-8.119	0.093753	1200.9
246.91370	-61.567	0.55295	0.036199	-7.9708	0.093911	1200.7
247.91370	-62.233	0.55231	0.036159	-8.0603	0.094186	1200.5
248.91370	-61.908	0.55197	0.036137	-8.0173	0.093704	1200.3
249.91370	-62.088	0.55139	0.036098	-8.0386	0.093181	1200.3
250.91370	-61.74	0.55097	0.036077	-7.9929	0.093421	1200.2
251.91370	-61.653	0.55051	0.036045	-7.9804	0.09381	1200.1
252.91370	-60.767	0.55051	0.036043	-7.8687	0.093668	1200.2
253.91370	-61.013	0.55024	0.036029	-7.9063	0.09302	1200.1
254.91370	-61.435	0.54967	0.035994	-7.9542	0.093932	1200.1
255.91370	-60.821	0.5497	0.035996	-7.8708	0.092675	1200.2
256.91370	-60.284	0.54964	0.035993	-7.8008	0.093047	1200.3
257.91370	-61.216	0.54904	0.035954	-7.9225	0.09309	1200.2
258.91370	-61.289	0.54887	0.035942	-7.9287	0.093436	1200.2
259.91370	-60.47	0.54879	0.035937	-7.8304	0.093636	1200.3
260.91370	-60.787	0.54857	0.035922	-7.8673	0.093334	1200.2
261.33270	-61.444	0.54809	0.035893	-7.9527	0.093111	1200.1
262.33270	-60.917	0.54784	0.035877	-7.8857	0.09286	1200.1
263.06240	-60.371	0.54777	0.035871	-7.8106	0.093834	1200.1
264.06240	-59.918	0.54788	0.035875	-7.7522	0.093025	1200
265.06240	-59.644	0.54789	0.035876	-7.719	0.093997	1200
266.06240	-59.42	0.54802	0.035885	-7.691	0.093007	1200
267.06240	-59.368	0.54806	0.035887	-7.6845	0.093371	1199.9
268.06240	-59.519	0.54811	0.035889	-7.7013	0.093601	1199.9
269.06240	-59.319	0.54807	0.035886	-7.6758	0.094017	1200
270.06240	-59.082	0.54813	0.03589	-7.6456	0.093588	1200
271.06240	-58.89	0.54818	0.035891	-7.6262	0.093703	1199.9
272.06240	-58.93	0.5483	0.035901	-7.6293	0.094041	1200
273.06240	-59.158	0.54828	0.035899	-7.659	0.094285	1200
274.06240	-59.25	0.54826	0.035897	-7.6662	0.094171	1200.1
275.06240	-58.975	0.54816	0.035892	-7.6313	0.094302	1200.1
276.06240	-58.826	0.54816	0.035892	-7.6149	0.094217	1200
277.06240	-58.991	0.54824	0.035898	-7.6418	0.094229	1200
278.06240	-59.332	0.54831	0.035902	-7.6851	0.093425	1200
279.06240	-59.482	0.54831	0.035904	-7.6994	0.094774	1199.9
280.06240	-59.999	0.54834	0.035906	-7.7645	0.094077	1199.9
281.06240	-60.521	0.54843	0.035914	-7.8274	0.093689	1200
282.06240	-60.565	0.54854	0.035921	-7.8396	0.092847	1200.1
283.06240	-60.057	0.54849	0.035919	-7.7744	0.094381	1200
284.06240	-59.496	0.54855	0.035922	-7.6976	0.093642	1199.8
285.06240	-59.839	0.54864	0.035927	-7.7396	0.093517	1199.8
286.06240	-60.319	0.54874	0.035932	-7.8032	0.094111	1200.1
287.06240	-60.001	0.54878	0.035935	-7.7651	0.093129	1200.1
288.06240	-60.058	0.54896	0.035946	-7.7756	0.093706	1200.1
289.06240	-59.868	0.54888	0.035941	-7.7509	0.09396	1200.2
290.06240	-59.654	0.54885	0.035938	-7.7217	0.093458	1200.1
291.06240	-59.66	0.54887	0.035938	-7.7158	0.093383	1200.1
292.06240	-61.474	0.54861	0.035923	-7.9526	0.09362	1200.1
293.06240	-62.061	0.54853	0.035918	-8.0356	0.09301	1200.4
294.06240	-61.373	0.54843	0.035909	-7.9462	0.093719	1200.4
295.06240	-61.063	0.5484	0.035909	-7.9018	0.094241	1200.2
296.06240	-60.717	0.54827	0.035898	-7.8587	0.093541	1200.2
297.06240	-61.234	0.54828	0.035901	-7.9227	0.094096	1200.1
298.06240	-61.494	0.54833	0.035903	-7.9614	0.094207	1200
299.06240	-61.68	0.5484	0.035907	-7.987	0.094021	1200
300.06240	-61.744	0.54839	0.035907	-7.9936	0.094028	1200.1
301.06240	-61.831	0.54843	0.03591	-8.007	0.094234	1200.2
302.06240	-61.364	0.54851	0.035912	-7.9432	0.093811	1200.2
302.29340	-61.147	0.54854	0.035915	-7.9196	0.093782	1200.1
303.29340	-60.601	0.54859	0.03592	-7.8407	0.094654	1199.8
303.32070	-60.651	0.54859	0.03592	-7.8474	0.0947	1199.8
304.32070	-60.89	0.54853	0.035917	-7.8779	0.093051	1199.8
305.32070	-61.047	0.54898	0.035947	-7.901	0.093316	1199.9
306.32070	-60.749	0.54936	0.03597	-7.863	0.093276	1200
307.32070	-60.448	0.5496	0.035987	-7.8292	0.093471	1200
308.32070	-60.174	0.54973	0.035996	-7.7861	0.092733	1200.1
309.32070	-62.098	0.5493	0.035967	-8.0344	0.092991	1200
310.32070	-62.262	0.54877	0.035933	-8.0564	0.093452	1200
311.32070	-61.591	0.54858	0.035919	-7.9741	0.09329	1200
312.32070	-62.909	0.54776	0.035868	-8.1436	0.093311	1200.1
313.32070	-62.257	0.54738	0.035844	-8.0602	0.092077	1200
314.32070	-62.28	0.54689	0.035811	-8.0585	0.093137	1199.9
315.32070	-62.744	0.54603	0.035755	-8.1165	0.092749	1199.9
316.32070	-61.789	0.54587	0.035745	-7.9923	0.092512	1199.9
317.32070	-61.341	0.54578	0.035741	-7.9383	0.092656	1199.8
318.32070	-62.987	0.54495	0.035688	-8.154	0.092658	1199.8
319.32070	-62.365	0.54472	0.035669	-8.0683	0.092339	1199.7
320.32070	-61.959	0.54458	0.035659	-8.0177	0.092189	1199.9
321.32070	-61.878	0.54434	0.035644	-8.0081	0.092302	1200
322.32070	-61.476	0.54421	0.035638	-7.9584	0.092371	1200.2
323.32070	-61.062	0.54386	0.035615	-7.9017	0.091591	1200.2
324.32070	-62.574	0.54257	0.035533	-8.0972	0.091469	1200.1
325.32070	-61.809	0.54241	0.035526	-7.9901	0.092476	1200.1
326.32070	-62.806	0.54167	0.035478	-8.1241	0.091863	1200.1
327.32070	-62.464	0.54118	0.035441	-8.0854	0.09126	1200.2
328.32070	-61.822	0.54094	0.035425	-7.9999	0.091499	1200.2
329.32070	-61.385	0.54071	0.035415	-7.9428	0.090605	1200.1
330.32070	-61.074	0.54043	0.035398	-7.8972	0.091555	1200
331.32070	-62.504	0.53938	0.035331	-8.0798	0.091825	1199.9
332.32070	-61.789	0.53922	0.035322	-7.9885	0.091217	1199.8
333.32070	-61.376	0.53925	0.035324	-7.9386	0.090476	1199.7
334.32070	-61.467	0.53924	0.035322	-7.9532	0.090525	1199.8
335.32070	-61.208	0.53906	0.035309	-7.9187	0.090954	1199.9
336.32070	-61.077	0.53912	0.035312	-7.8975	0.090867	1199.8
337.32070	-61.248	0.5391	0.03531	-7.9231	0.09074	1199.9
338.32070	-61.071	0.53891	0.035299	-7.9048	0.091537	1200
339.32070	-61.109	0.53888	0.035297	-7.9041	0.090698	1200
340.32070	-61.14	0.53884	0.035294	-7.9015	0.090184	1200
341.32070	-61.296	0.53901	0.035305	-7.9294	0.090564	1200
342.32070	-61.343	0.53901	0.035304	-7.9328	0.090502	1200.2
343.23360	-61.264	0.53912	0.035312	-7.923	0.089903	1200.1
344.23360	-61.41	0.5392	0.035314	-7.9453	0.090081	1200
345.23360	-61.642	0.53928	0.035318	-7.9726	0.089454	1200.2
346.23360	-61.668	0.53923	0.035316	-7.9774	0.090296	1200.2
347.23360	-61.731	0.53928	0.035318	-7.9864	0.089876	1200.2
347.86720	-62.012	0.53932	0.035321	-8.0234	0.088766	1200.3
348.86720	-61.906	0.53928	0.03532	-8.0091	0.090357	1200.3
349.86720	-61.777	0.53928	0.035322	-7.9917	0.090026	1200.3
350.86720	-61.57	0.5393	0.035321	-7.9704	0.090277	1200.3
351.86720	-61.55	0.53942	0.035332	-7.9673	0.089945	1200.2
352.86720	-61.661	0.53958	0.03534	-7.9722	0.088995	1200.3
353.86720	-61.595	0.53977	0.035355	-7.9638	0.089201	1200.3
354.86720	-61.4	0.5398	0.035358	-7.9394	0.088657	1200.2
355.86720	-61.326	0.54003	0.035374	-7.9312	0.088585	1200.1
356.86720	-61.337	0.54017	0.035382	-7.9393	0.08881	1200.1
357.86720	-61.289	0.54027	0.035388	-7.9339	0.089373	1200
358.86720	-61.047	0.54024	0.035384	-7.8995	0.088983	1199.9
359.86720	-60.779	0.54042	0.035396	-7.8581	0.088274	1199.7
360.86720	-60.825	0.54059	0.035407	-7.8635	0.088476	1199.6
361.86720	-61.414	0.54087	0.035426	-7.9443	0.088431	1199.8
362.86720	-61.687	0.54087	0.035425	-7.9818	0.088357	1200
363.86720	-61.59	0.54105	0.035437	-7.9703	0.088792	1200.1
364.86720	-61.38	0.54123	0.035447	-7.9384	0.089536	1200.1
365.86720	-61.061	0.54133	0.035455	-7.8978	0.088488	1200.1
366.86720	-60.43	0.54139	0.035458	-7.8221	0.08803	1200.1
367.86720	-59.802	0.5415	0.035466	-7.738	0.089279	1199.9
368.86720	-61.863	0.54137	0.035458	-8.0046	0.087953	1200
369.86720	-62.127	0.54148	0.035463	-8.0379	0.088189	1200
370.86720	-61.832	0.54158	0.03547	-7.9967	0.088263	1200
371.86720	-61.784	0.54174	0.03548	-7.9885	0.088077	1200.2
372.86720	-61.512	0.54188	0.03549	-7.9598	0.087314	1200.2
373.86720	-61.048	0.54205	0.035501	-7.8978	0.088713	1200.2
374.86720	-60.587	0.54222	0.035512	-7.8393	0.088472	1200.2
375.86720	-60.161	0.54243	0.035527	-7.7807	0.087889	1200
376.86720	-61.43	0.54217	0.035511	-7.9409	0.088596	1200
377.86720	-61.179	0.54232	0.035519	-7.9108	0.087844	1200
378.86720	-60.801	0.54246	0.035528	-7.8664	0.088173	1200.1
379.86720	-60.142	0.5426	0.035538	-7.7837	0.088487	1200.2
380.86720	-61.285	0.5421	0.035506	-7.9322	0.088615	1200.1
381.86720	-60.625	0.5419	0.035492	-7.8409	0.088845	1200.1
382.86720	-61.097	0.54153	0.035467	-7.9072	0.089059	1199.9
383.86720	-60.033	0.54162	0.035474	-7.7676	0.087962	1199.9
384.27340	-60.13	0.54154	0.035469	-7.7739	0.088458	1199.9
385.27340	-60.435	0.54106	0.035436	-7.8159	0.088211	1199.9
386.27340	-60.328	0.54078	0.03542	-7.8066	0.08904	1199.8
387.00200	-60.367	0.54044	0.035398	-7.8088	0.08833	1199.7
388.00200	-59.48	0.54034	0.035393	-7.694	0.088349	1199.6
389.00200	-58.98	0.54036	0.035394	-7.6283	0.088327	1199.7
390.00200	-60.144	0.53963	0.035346	-7.7736	0.088472	1199.8
391.00200	-59.679	0.53907	0.03531	-7.718	0.088473	1200
392.00200	-60.32	0.53845	0.035271	-7.8023	0.089315	1199.9
393.00200	-60.328	0.53775	0.035224	-7.8046	0.09004	1200
394.00200	-60.18	0.53731	0.035193	-7.7827	0.089123	1200
395.00200	-58.845	0.53724	0.035188	-7.6086	0.089474	1200.1
396.00200	-59.965	0.53644	0.035135	-7.7559	0.089381	1200.1
397.00200	-58.849	0.53632	0.035128	-7.6117	0.088978	1200.3
398.00200	-59.849	0.53541	0.035072	-7.7435	0.089425	1200.2
399.00200	-60.178	0.53447	0.035011	-7.7857	0.090075	1200.2
400.00200	-59.291	0.53405	0.034984	-7.6592	0.089798	1200.2
401.00200	-59.81	0.53314	0.034929	-7.73	0.089632	1200.2
402.00200	-58.667	0.53278	0.034907	-7.5834	0.0894	1200.1
403.00200	-59.462	0.53176	0.034839	-7.6841	0.090245	1200.2
404.00200	-59.546	0.53104	0.034792	-7.6973	0.090229	1200.3
405.00200	-59.064	0.53044	0.034754	-7.6337	0.089656	1200.2
406.00200	-59.56	0.52941	0.034689	-7.693	0.089649	1200.1
407.00200	-59.709	0.52864	0.034639	-7.712	0.090744	1200.1
408.00200	-58.714	0.52839	0.034624	-7.585	0.089886	1200.1
409.00200	-58.73	0.52759	0.034573	-7.5892	0.090465	1200.1
410.00200	-59.202	0.52674	0.034519	-7.6499	0.090246	1200
411.00200	-58.416	0.52654	0.034505	-7.5462	0.090116	1200.1
412.00200	-58.62	0.52569	0.034451	-7.57	0.090495	1200.1
413.00200	-59.011	0.52504	0.03441	-7.6243	0.089757	1200.1
414.00200	-59.357	0.52394	0.034335	-7.6739	0.090347	1200.3
415.00200	-59.044	0.52283	0.034262	-7.6305	0.090133	1200.2
416.00200	-59.435	0.52161	0.034182	-7.6786	0.091324	1200.1
417.00200	-58.61	0.52104	0.034146	-7.5689	0.091634	1200.1
418.00200	-59.255	0.51977	0.034063	-7.6561	0.090846	1200.1
419.00200	-59.633	0.51862	0.03399	-7.7034	0.09089	1200.1
420.00200	-59.568	0.51783	0.03394	-7.6933	0.090232	1200.1
421.00200	-60.504	0.51451	0.033727	-7.814	0.090863	1198.8
422.00200	-60.85	0.50809	0.03331	-7.8533	0.090541	1194.3
423.00200	-60.901	0.5019	0.03291	-7.8592	0.091215	1188.8
424.00200	-60.947	0.49644	0.032559	-7.8655	0.091575	1183.2
425.00200	-61.061	0.49184	0.032263	-7.8782	0.090673	1177.7
425.21730	-61.025	0.49095	0.032206	-7.8741	0.09051	1176.6
426.21730	-61.103	0.48671	0.031935	-7.8774	0.090506	1171.4
426.24420	-61.027	0.48657	0.031926	-7.8672	0.090561	1171.3
427.24420	-61.219	0.48232	0.031653	-7.894	0.090558	1166.1
428.24420	-61.279	0.47824	0.031385	-7.893	0.091402	1161
429.24420	-61.333	0.47429	0.031128	-7.8996	0.090969	1156
430.24420	-61.383	0.47059	0.030891	-7.9045	0.090953	1150.9
431.24420	-61.596	0.46713	0.030669	-7.9325	0.090584	1145.9
432.24420	-61.71	0.46415	0.030477	-7.9468	0.090656	1141
433.24420	-61.79	0.46174	0.030324	-7.9511	0.090196	1135.9
434.24420	-61.857	0.45959	0.030184	-7.9599	0.091118	1130.7
435.24420	-62.065	0.45691	0.03001	-7.9809	0.091548	1125.6
436.24420	-62.169	0.45386	0.029811	-7.9974	0.089533	1120.6
437.24420	-62.393	0.45009	0.029566	-8.0233	0.088855	1115.6
438.24420	-62.646	0.44607	0.029306	-8.0567	0.0886	1110.6
439.24420	-62.674	0.44169	0.029022	-8.0587	0.088582	1105.6
440.24420	-62.733	0.43741	0.028743	-8.0619	0.088545	1100.6
441.24420	-62.83	0.43323	0.028472	-8.0734	0.088464	1095.6
442.24420	-63.033	0.42861	0.028173	-8.0998	0.088567	1090.6
443.24420	-63.35	0.42436	0.027898	-8.1324	0.089242	1085.6
444.24420	-63.374	0.41988	0.027607	-8.134	0.089443	1080.6
445.24420	-63.429	0.41551	0.027324	-8.1393	0.090272	1075.6
446.24420	-63.435	0.4112	0.027044	-8.1401	0.0916	1070.6
447.24420	-63.627	0.4068	0.026757	-8.164	0.090026	1065.5
448.24420	-63.766	0.40257	0.026486	-8.1786	0.090077	1060.6
449.24420	-63.809	0.39842	0.026216	-8.1757	0.088994	1055.5
450.24420	-63.888	0.39422	0.025943	-8.1835	0.089463	1050.6
451.24420	-63.904	0.39017	0.025682	-8.184	0.089791	1045.6
452.24420	-64.063	0.38594	0.025406	-8.2092	0.089925	1040.6
453.24420	-64.143	0.38173	0.02513	-8.2163	0.090349	1035.6
454.24420	-64.226	0.3773	0.024842	-8.2271	0.089653	1030.6
455.24420	-64.248	0.37274	0.024546	-8.2179	0.090133	1025.7
456.24420	-64.173	0.36831	0.024259	-8.2077	0.089038	1020.7
457.24420	-64.308	0.36373	0.023964	-8.2244	0.089183	1015.9
458.24420	-64.42	0.35957	0.023692	-8.2405	0.090367	1010.8
459.24420	-64.497	0.35547	0.023426	-8.2447	0.089273	1005.6
460.24420	-64.43	0.16222	0.0107	-8.1312	0.057096	1000.6
461.10000	-64.806	-0.0025147	-0.00020872	-8.0691	0.085434	997.14
461.10050	-80.046	-0.0033587	-0.00020481	-9.8273	0.087656	997.05
461.10100	-67.34	-0.0029566	-0.00018022	-8.452	0.087981	996.96
461.10150	-63.268	0.00023183	-3.0194e-05	-8.0006	0.088789	996.86
461.10200	-60.451	0.003064	0.00016828	-7.5242	0.083647	996.77
461.10250	-61.639	0.0035455	0.000236	-7.7307	0.089309	996.68
461.10300	-59.822	0.002076	0.00014223	-7.4559	0.085654	996.58
461.10350	-63.81	0.00018371	3.6408e-05	-7.9651	0.088182	996.49
461.10400	-64.303	-0.001306	-3.9518e-05	-8.0022	0.083446	996.4
461.10450	-64.263	-0.0018555	-0.00010805	-8.0239	0.084849	996.3
461.10500	-64.803	-0.0019759	-9.8958e-05	-8.0541	0.078006	996.21
461.10550	-63.132	-0.0015328	-0.00011408	-7.8703	0.076933	996.12
461.10600	-63.351	-0.0017767	-0.00011981	-7.8949	0.075796	996.02
461.10650	-68.343	-0.0021991	-0.00015462	-8.4945	0.064755	995.93
461.10700	-60.898	-0.002573	-0.00015264	-7.6968	0.053953	995.84
461.10750	-66.875	-0.0027586	-0.00020522	-8.1715	0.03887	995.74
461.10800	-64.141	-0.0028496	-0.00022157	-8.1546	0.01874	995.65
461.10850	-65.411	-0.0034861	-0.00023671	-8.0708	-0.0057588	995.63
461.10900	-62.987	-0.0030966	-0.00021786	-7.9772	-0.030802	995.7
461.10950	-65.433	-0.0030853	-0.00022567	-8.1079	-0.071644	995.78
461.11000	-62.196	-0.0031105	-0.00019847	-7.7995	-0.11388	995.86
461.11050	-49.32	-0.0021171	-0.00015175	-6.218	-0.1563	995.93
461.11100	-64.204	-0.00041461	-3.7274e-05	-7.9776	-0.20526	996.01
461.11150	-64.252	0.0032507	0.00014503	-7.9976	-0.25784	996.09
461.11200	-72.556	0.0048022	0.00031524	-9.0083	-0.32127	996.16
461.11250	-65.593	0.00378	0.00027628	-8.235	-0.37582	996.24
461.11300	-75.783	0.0017062	0.00016596	-9.3808	-0.43956	996.32
461.11350	-62.647	0.00058094	3.2431e-05	-8.003	-0.50859	996.39
461.11400	-65.353	-0.0008646	-5.4697e-05	-8.0667	-0.58667	996.47
461.11450	-61.626	-0.00089646	-5.8709e-05	-7.7795	-0.6568	996.55
461.11500	-69.994	-0.000384	-3.6918e-05	-8.7079	-0.72644	996.62
461.11550	-65.421	-0.00070647	4.3068e-06	-8.2351	-0.80383	996.7
461.11600	-61.378	-0.0010934	-7.2471e-05	-7.7803	-0.88621	996.78
461.11650	-62.983	-0.0024416	-0.00014179	-7.6663	-0.9714	996.85
461.11700	-71.162	-0.002481	-0.00020249	-8.869	-1.0431	996.93
461.11750	-67.909	-0.0025973	-0.00015015	-8.5378	-1.1225	997.01
461.11800	-60.352	-0.0025846	-0.00017059	-7.6095	-1.2073	997.09
461.11850	-60.197	-0.0028592	-0.00019007	-7.4466	-1.2913	997.16
461.11900	-68.897	-0.0030983	-0.00018816	-8.4396	-1.3636	997.24
461.11950	-70.966	-0.0029096	-0.00021102	-8.9559	-1.4394	997.31
461.12000	-59.796	-0.0033389	-0.00022443	-7.5994	-1.5258	997.39
461.12050	-59.558	-0.002715	-0.00019795	-7.4078	-1.6036	997.46
461.12100	-67.965	-0.0026716	-0.0001553	-8.3099	-1.6785	997.54
461.12150	-73.638	-0.0025875	-0.00016475	-9.2491	-1.7423	997.61
461.12200	-60.388	-0.0030019	-0.00017481	-7.69	-1.8181	997.69
461.12250	-70.178	-0.0034757	-0.00022699	-8.2301	-1.8943	997.76
461.12300	-129.43	-0.0052593	-0.00033399	-15.025	-1.9464	997.84
461.12350	-229.97	-0.010555	-0.00066264	-26.945	-1.9921	997.91
461.12400	-494.78	-0.02249	-0.0014029	-56.332	-2.033	997.99
461.12450	-741.78	-0.042277	-0.0026157	-91.489	-2.0893	998.06
461.12500	-621.74	-0.069757	-0.0044279	-78.727	-2.1419	998.14
461.12550	-653.24	-0.10639	-0.0068087	-80.043	-2.2008	998.21
461.12600	-717.49	-0.14554	-0.0094547	-88.215	-2.248	998.29
461.12650	-757.39	-0.18402	-0.012058	-92.896	-2.2981	998.36
461.12700	-759.15	-0.2226	-0.01465	-93.406	-2.3411	998.44
461.12750	-807.74	-0.2627	-0.017346	-98.688	-2.3837	998.51
461.12800	-836.57	-0.30541	-0.020247	-101.79	-2.4247	998.59
461.12850	-894.14	-0.35158	-0.023412	-108.61	-2.4775	998.67
461.12900	-908.59	-0.40132	-0.026735	-110.13	-2.5315	998.77
461.12950	-923.58	-0.45297	-0.0303	-111.72	-2.5788	998.87
461.13000	-950.99	-0.50446	-0.033787	-114.42	-2.6283	998.97
461.13050	-960.63	-0.55244	-0.037163	-115.46	-2.68	999.07
461.13100	-996.68	-0.59651	-0.040252	-119.17	-2.7314	999.17
461.13150	-1005.4	-0.63758	-0.043118	-120.02	-2.7823	999.27
461.13200	-1039.2	-0.67653	-0.045869	-123.5	-2.8305	999.37
461.13250	-1061.3	-0.71608	-0.048597	-125.98	-2.8903	999.47
461.13300	-1082.7	-0.75657	-0.051429	-128.24	-2.9442	999.57
461.13350	-1088.4	-0.80137	-0.054544	-128.65	-3.0012	999.67
461.13400	-1106.1	-0.85137	-0.058012	-130.06	-3.058	999.77
461.13450	-1128.5	-0.90245	-0.061652	-132.22	-3.1158	999.87
461.13500	-1150.4	-0.95444	-0.065338	-134.32	-3.169	999.97
461.13550	-1170.6	-1.0069	-0.069089	-136.08	-3.2272	1000.1
461.13600	-1185.8	-1.0609	-0.072879	-137.52	-3.2893	1000.2
461.13650	-1201.8	-1.116	-0.076842	-138.7	-3.351	1000.3
461.13700	-1230.6	-1.1718	-0.080857	-141.42	-3.4146	1000.4
461.13750	-1237.4	-1.2269	-0.084926	-141.95	-3.4747	1000.5
461.13800	-1244.4	-1.2843	-0.089029	-141.92	-3.5445	1000.6
461.13850	-1266.6	-1.3393	-0.093055	-143.86	-3.6003	1000.7
461.13900	-1285.5	-1.3927	-0.096969	-145.41	-3.6653	1000.8
461.13950	-1294.6	-1.4462	-0.10088	-146.12	-3.727	1000.8
461.14000	-1303.2	-1.499	-0.10485	-146.23	-3.7866	1000.9
461.14050	-1320.4	-1.5535	-0.10892	-147.65	-3.8502	1001
461.14100	-1341.5	-1.6076	-0.11291	-149.31	-3.9133	1001.1
461.14150	-1361.6	-1.6623	-0.117	-151.13	-3.9784	1001.2
461.14200	-1366.1	-1.7179	-0.12114	-151.03	-4.0346	1001.3
461.14250	-1377.3	-1.7741	-0.12538	-151.51	-4.1035	1001.4
461.14300	-1396.2	-1.8294	-0.12962	-152.9	-4.1626	1001.5
461.14350	-1408.7	-1.8849	-0.1338	-153.78	-4.2258	1001.6
461.14400	-1414.9	-1.9394	-0.13797	-153.88	-4.285	1001.7
461.14450	-1422.1	-1.9929	-0.1421	-153.99	-4.3483	1001.7
461.14500	-1442.8	-2.0466	-0.14621	-155.36	-4.4065	1001.8
461.14550	-1454.7	-2.0994	-0.15036	-156.22	-4.4686	1001.9
461.14600	-1462.9	-2.1534	-0.15451	-156.37	-4.5258	1002
461.14650	-1470	-2.2063	-0.15866	-156.54	-4.5858	1002.1
461.14700	-1487.3	-2.2599	-0.16284	-157.51	-4.6489	1002.2
461.14750	-1507.7	-2.3128	-0.16701	-159.11	-4.7022	1002.3
461.14800	-1513.9	-2.3651	-0.17111	-159.26	-4.7671	1002.4
461.14850	-1514.9	-2.4177	-0.17525	-158.68	-4.8204	1002.5
461.14900	-1528.5	-2.4689	-0.17942	-159.34	-4.8787	1002.5
461.14950	-1543.4	-2.5199	-0.18345	-160.26	-4.9372	1002.6
461.15000	-1554.3	-2.5689	-0.18748	-160.86	-4.9902	1002.7
461.15050	-1556.1	-2.6179	-0.19135	-160.47	-5.0487	1002.8
461.15100	-1568.4	-2.6666	-0.1953	-160.91	-5.1015	1002.9
461.15150	-1584.8	-2.7158	-0.19927	-161.96	-5.161	1003
461.15200	-1596.5	-2.7637	-0.20322	-162.62	-5.2122	1003
461.15250	-1596.4	-2.8138	-0.2073	-161.97	-5.267	1003.1
461.15300	-1605.9	-2.8635	-0.21138	-162.12	-5.3251	1003.2
461.15350	-1627.3	-2.9134	-0.21549	-163.52	-5.3754	1003.3
461.15400	-1642.9	-2.9631	-0.21958	-164.59	-5.4333	1003.4
461.15450	-1648.5	-3.012	-0.22373	-164.56	-5.4868	1003.5
461.15500	-1656.9	-3.0628	-0.22791	-164.59	-5.5461	1003.5
461.15550	-1675.4	-3.1131	-0.23213	-165.68	-5.5977	1003.6
461.15600	-1691	-3.1629	-0.2363	-166.56	-5.656	1003.7
461.15650	-1699.4	-3.2129	-0.24055	-166.74	-5.7142	1003.8
461.15700	-1706.8	-3.2637	-0.24482	-166.72	-5.7741	1003.9
461.15750	-1725.1	-3.3139	-0.24917	-167.67	-5.8261	1004
461.15800	-1744.5	-3.364	-0.25349	-168.91	-5.8847	1004
461.15850	-1754	-3.4155	-0.2579	-169.12	-5.9483	1004.1
461.15900	-1761	-3.4671	-0.26242	-169.08	-6.0028	1004.2
461.15950	-1775.5	-3.5202	-0.26693	-169.53	-6.0628	1004.3
461.16000	-1797.7	-3.572	-0.27148	-170.92	-6.1193	1004.4
461.16050	-1807.2	-3.6253	-0.27612	-171.15	-6.1804	1004.4
461.16100	-1814.4	-3.6783	-0.28079	-171.02	-6.2413	1004.5
461.16150	-1823.1	-3.7309	-0.28553	-170.92	-6.2987	1004.6
461.16200	-1842.9	-3.783	-0.29007	-171.94	-6.3576	1004.7
461.16250	-1856.7	-3.8349	-0.29477	-172.63	-6.4145	1004.8
461.16300	-1859	-3.8869	-0.29937	-172.01	-6.4751	1004.8
461.16350	-1870.9	-3.9379	-0.30403	-172.21	-6.5303	1004.9
461.16400	-1887.1	-3.9891	-0.30864	-172.84	-6.5867	1005
461.16450	-1904.3	-4.0388	-0.3132	-173.72	-6.6422	1005.1
461.16500	-1908.6	-4.0903	-0.31791	-173.39	-6.7004	1005.2
461.16550	-1915.4	-4.1411	-0.32253	-173.15	-6.76	1005.2
461.16600	-1933.4	-4.1921	-0.32726	-173.78	-6.8182	1005.3
461.16650	-1953.1	-4.2423	-0.33192	-174.83	-6.8722	1005.4
461.16700	-1960.3	-4.2927	-0.33664	-174.77	-6.928	1005.5
461.16750	-1964.3	-4.3433	-0.34136	-174.27	-6.9865	1005.6
461.16799	-1982.7	-4.3935	-0.3461	-174.95	-7.0437	1005.6
461.16849	-2001.1	-4.4435	-0.35079	-175.75	-7.1041	1005.7
461.16899	-2011.7	-4.4932	-0.35545	-176.04	-7.1539	1005.8
461.16949	-2016.3	-4.5428	-0.36021	-175.53	-7.209	1005.9
461.16999	-2033.6	-4.5923	-0.36499	-176.08	-7.2664	1006
461.17049	-2054	-4.641	-0.36971	-177	-7.3247	1006.1
461.17099	-2068.1	-4.6908	-0.37446	-177.5	-7.3823	1006.1
461.17149	-2071.5	-4.7398	-0.37926	-176.98	-7.4349	1006.2
461.17199	-2084.3	-4.7904	-0.38413	-177.06	-7.4924	1006.3
461.17249	-2103.5	-4.8393	-0.38905	-177.82	-7.5476	1006.4
461.17299	-2122.2	-4.8892	-0.39391	-178.57	-7.6056	1006.5
461.17349	-2126.9	-4.9382	-0.39881	-178.22	-7.6601	1006.6
461.17399	-2140	-4.9874	-0.40366	-178.27	-7.718	1006.6
461.17449	-2161.7	-5.037	-0.40865	-179.2	-7.7722	1006.7
461.17499	-2183.1	-5.0866	-0.41363	-180.08	-7.8288	1006.8
461.17549	-2196.2	-5.1365	-0.41862	-180.36	-7.891	1006.9
461.17599	-2204.3	-5.1866	-0.42379	-180.03	-7.9435	1007
461.17649	-2227.2	-5.237	-0.42886	-180.87	-8.0001	1007.1
461.17699	-2249.1	-5.2864	-0.43396	-181.77	-8.055	1007.1
461.17749	-2262.5	-5.3367	-0.43915	-182.01	-8.1156	1007.2
461.17799	-2271	-5.3868	-0.44433	-181.7	-8.1735	1007.3
461.17849	-2291.6	-5.4377	-0.44964	-182.3	-8.2293	1007.4
461.17899	-2317	-5.4877	-0.45487	-183.33	-8.2862	1007.5
461.17949	-2333.2	-5.5373	-0.46014	-183.77	-8.3418	1007.6
461.17999	-2343.4	-5.5886	-0.46549	-183.59	-8.4025	1007.7
461.18049	-2361.2	-5.639	-0.47093	-183.91	-8.4568	1007.8
461.18099	-2387.7	-5.6903	-0.47633	-184.9	-8.5143	1007.9
461.18149	-2409.2	-5.7404	-0.48177	-185.65	-8.5685	1008
461.18199	-2418.7	-5.7913	-0.4873	-185.42	-8.6295	1008.1
461.18249	-2438.3	-5.8414	-0.4928	-185.79	-8.6887	1008.2
461.18299	-2465.7	-5.8923	-0.4983	-186.86	-8.7436	1008.3
461.18349	-2490.9	-5.942	-0.50377	-187.77	-8.7975	1008.3
461.18399	-2504.1	-5.9925	-0.50935	-187.81	-8.8572	1008.4
461.18449	-2518.6	-6.0424	-0.51488	-187.73	-8.917	1008.5
461.18499	-2545.7	-6.0923	-0.52056	-188.65	-8.9694	1008.6
461.18549	-2573	-6.142	-0.5261	-189.59	-9.0296	1008.7
461.18599	-2590	-6.1914	-0.53172	-189.95	-9.0811	1008.8
461.18649	-2605.5	-6.2406	-0.53727	-189.93	-9.1362	1008.9
461.18699	-2634.6	-6.29	-0.543	-190.89	-9.192	1009
461.18749	-2666.4	-6.3393	-0.54862	-192.11	-9.2503	1009.1
461.18799	-2689.3	-6.389	-0.55434	-192.73	-9.311	1009.2
461.18849	-2707.4	-6.4389	-0.56022	-192.89	-9.3625	1009.3
461.18899	-2736.3	-6.489	-0.56599	-193.73	-9.4172	1009.4
461.18949	-2770.8	-6.539	-0.57197	-195.03	-9.4756	1009.5
461.18999	-2798.5	-6.5891	-0.57784	-195.91	-9.5356	1009.6
461.19049	-2814.5	-6.6395	-0.58386	-195.86	-9.5901	1009.7
461.19099	-2841.7	-6.6895	-0.58989	-196.45	-9.6437	1009.8
461.19149	-2878.8	-6.7396	-0.59592	-197.81	-9.7029	1009.9
461.19199	-2911.3	-6.789	-0.60192	-198.94	-9.7587	1010
461.19249	-2933.7	-6.8394	-0.60799	-199.24	-9.8165	1010.1
461.19299	-2958.7	-6.8895	-0.6142	-199.67	-9.8719	1010.2
461.19349	-2996.1	-6.9402	-0.62043	-200.86	-9.9284	1010.3
461.19399	-3031.5	-6.9894	-0.62661	-202.08	-9.9876	1010.5
461.19449	-3056.1	-7.039	-0.63283	-202.49	-10.048	1010.6
461.19499	-3084.1	-7.0884	-0.63902	-203.01	-10.102	1010.7
461.19549	-3122.1	-7.1383	-0.64529	-204.17	-10.157	1010.8
461.19599	-3166.7	-7.187	-0.65155	-205.81	-10.212	1010.9
461.19649	-3196.8	-7.2359	-0.65785	-206.59	-10.27	1011
461.19699	-3223.3	-7.285	-0.66424	-206.92	-10.324	1011.1
461.19749	-3260	-7.3348	-0.67069	-207.87	-10.379	1011.2
461.19799	-3304.6	-7.383	-0.67693	-209.35	-10.44	1011.3
461.19849	-3341.1	-7.4315	-0.68331	-210.45	-10.491	1011.4
461.19899	-3368.6	-7.4798	-0.68972	-210.8	-10.545	1011.5
461.19949	-3409.5	-7.528	-0.69617	-211.91	-10.601	1011.5
461.19999	-3459.4	-7.5754	-0.70254	-213.6	-10.662	1011.6
461.20049	-3502.7	-7.624	-0.7091	-214.96	-10.715	1011.7
461.20099	-3534.7	-7.672	-0.71563	-215.57	-10.768	1011.8
461.20149	-3573.3	-7.7205	-0.72216	-216.41	-10.825	1011.8
461.20199	-3622	-7.7675	-0.72875	-217.88	-10.877	1011.9
461.20249	-3671.8	-7.8138	-0.7352	-219.47	-10.933	1012
461.20299	-3710.8	-7.8603	-0.74173	-220.46	-10.985	1012.1
461.20349	-3750.7	-7.9071	-0.74823	-221.31	-11.039	1012.1
461.20399	-3806.4	-7.9536	-0.75481	-223.03	-11.097	1012.2
461.20449	-3863.8	-8.0002	-0.7614	-224.93	-11.154	1012.3
461.20499	-3906.9	-8.0473	-0.76818	-226.01	-11.207	1012.4
461.20549	-3950.1	-8.0941	-0.77497	-226.91	-11.257	1012.4
461.20599	-4005.7	-8.1405	-0.78165	-228.5	-11.311	1012.5
461.20649	-4068.8	-8.1857	-0.78835	-230.57	-11.367	1012.6
461.20699	-4121.7	-8.2322	-0.79501	-232.12	-11.42	1012.7
461.20749	-4157.9	-8.2776	-0.80179	-232.63	-11.472	1012.7
461.20799	-4197.3	-8.3227	-0.80862	-233.19	-11.523	1012.8
461.20849	-4238	-8.3663	-0.81523	-233.95	-11.572	1012.9
461.20899	-4260.3	-8.4075	-0.8215	-233.85	-11.618	1012.9
461.20949	-4281.3	-8.4465	-0.82739	-233.58	-11.659	1012.9
461.20999	-4291	-8.4828	-0.83305	-232.85	-11.697	1012.9
461.21049	-4311.2	-8.5171	-0.8383	-232.69	-11.736	1013
461.21099	-4313.4	-8.5479	-0.84313	-231.84	-11.766	1013
461.21149	-4309.3	-8.5769	-0.84773	-230.53	-11.799	1013
461.21199	-4289	-8.6037	-0.85186	-228.62	-11.823	1013
461.21249	-4291.5	-8.6268	-0.85559	-227.7	-11.848	1013.1
461.21299	-4275.6	-8.6479	-0.8589	-226.34	-11.869	1013.1
461.21349	-4243.2	-8.6663	-0.86183	-224.01	-11.888	1013.1
461.21399	-4193.1	-8.6832	-0.86457	-220.86	-11.905	1013.1
461.21430	-4192.2	-8.6835	-0.86462	-220.8	-11.905	1013.1
461.71430	-1415.6	-8.8035	-0.88405	-73.173	-11.891	967.47
462.21430	-1082.5	-8.8153	-0.88596	-55.739	-11.887	896.65
462.71430	-970.78	-8.8164	-0.88614	-49.97	-11.883	846.98
463.21430	-860.54	-8.8143	-0.8858	-44.31	-11.876	811.03
463.71430	-780.62	-8.8126	-0.88552	-40.209	-11.872	786.31
464.21430	-679.61	-8.8092	-0.88498	-35.023	-11.864	767.81
464.71430	-590.47	-8.8067	-0.88458	-30.442	-11.854	753.92
465.21430	-531.71	-8.8067	-0.88459	-27.413	-11.85	740.04
465.71430	-461.41	-8.8056	-0.8844	-23.794	-11.843	725.82
466.21430	-401.93	-8.805	-0.88431	-20.726	-11.837	714.14
466.71430	-341.01	-8.8038	-0.88411	-17.589	-11.831	702.55
467.21430	-288.98	-8.8025	-0.88391	-14.911	-11.825	691.27
467.71430	-245.64	-8.8012	-0.88368	-12.675	-11.819	680.75
468.21430	-198.42	-8.7983	-0.88322	-10.242	-11.811	670.05
468.71430	-172.29	-8.7975	-0.8831	-8.8983	-11.806	659.5
469.21430	-131.89	-8.7935	-0.88246	-6.8137	-11.797	648.86
469.71430	-107.05	-8.7926	-0.88232	-5.5307	-11.79	638.41
470.21430	-90.029	-8.7932	-0.8824	-4.6502	-11.784	628.3
470.71430	-80.8	-8.7965	-0.88294	-4.1732	-11.777	618.27
471.21430	-71.696	-8.8001	-0.88352	-3.6999	-11.769	608.27
471.71430	-64.936	-8.8032	-0.88401	-3.349	-11.761	598.5
472.21430	-60.628	-8.8049	-0.88429	-3.1289	-11.754	588.9
472.71430	-57.52	-8.8061	-0.88449	-2.9654	-11.746	579.6
473.21430	-54.675	-8.8072	-0.88467	-2.8212	-11.74	570.55
473.71430	-52.663	-8.8081	-0.88481	-2.714	-11.732	561.62
474.21430	-51.351	-8.809	-0.88496	-2.6492	-11.725	552.98
474.71430	-50.123	-8.8097	-0.88507	-2.5866	-11.718	544.74
475.21430	-49.629	-8.8104	-0.88517	-2.5567	-11.711	536.63
475.71430	-49.256	-8.8108	-0.88525	-2.5412	-11.704	528.42
476.21430	-49.029	-8.8113	-0.88533	-2.523	-11.697	520.44
476.71430	-49.016	-8.8117	-0.88538	-2.5271	-11.689	512.66
477.21430	-48.903	-8.8121	-0.88545	-2.5177	-11.682	505.19
477.71430	-49.034	-8.8125	-0.88551	-2.524	-11.674	497.59
478.21430	-48.925	-8.8128	-0.88557	-2.522	-11.667	490.64
478.71430	-49.057	-8.8131	-0.88562	-2.5261	-11.661	483.79
479.21430	-49.146	-8.8135	-0.88568	-2.5325	-11.652	477.26
479.71430	-49.129	-8.8138	-0.88573	-2.5311	-11.645	471.18
480.21430	-49.392	-8.8141	-0.88577	-2.5418	-11.638	465.31
480.71430	-49.391	-8.8143	-0.8858	-2.5434	-11.63	459.8
481.21430	-49.456	-8.8145	-0.88585	-2.5472	-11.622	454.52
481.71430	-49.698	-8.8148	-0.88589	-2.5606	-11.616	449.33
482.21430	-49.624	-8.815	-0.88592	-2.5571	-11.608	444.36
482.71430	-49.925	-8.8152	-0.88595	-2.5679	-11.602	439.56
483.21430	-49.762	-8.8156	-0.88601	-2.5632	-11.594	434.78
483.71430	-49.864	-8.8159	-0.88606	-2.5667	-11.586	430.14
484.21430	-50.057	-8.8161	-0.88611	-2.5774	-11.58	425.49
484.71430	-49.998	-8.8164	-0.88614	-2.571	-11.571	420.48
485.21430	-50.264	-8.8166	-0.88618	-2.5848	-11.567	415.86
485.71430	-50.159	-8.8169	-0.88622	-2.5849	-11.561	410.99
486.21430	-50.17	-8.8171	-0.88625	-2.5802	-11.554	406.02
486.71430	-50.284	-8.8174	-0.8863	-2.588	-11.547	401.08
487.21430	-50.216	-8.8175	-0.88633	-2.5833	-11.541	396.02
487.71430	-50.444	-8.8177	-0.88636	-2.5935	-11.534	390.82
488.21430	-50.147	-8.818	-0.8864	-2.584	-11.526	385.51
488.71430	-50.122	-8.8179	-0.88639	-2.5793	-11.519	380.31
489.21430	-50.029	-8.8179	-0.88638	-2.5787	-11.511	375
489.71430	-49.956	-8.8178	-0.88637	-2.5714	-11.506	369.65
490.21430	-50.121	-8.8177	-0.88636	-2.5784	-11.495	364.37
490.71430	-49.992	-8.8177	-0.88636	-2.5737	-11.49	359.06
491.21430	-49.93	-8.8177	-0.88637	-2.5695	-11.482	353.69
491.71430	-50.107	-8.8178	-0.88637	-2.5792	-11.475	348.46
492.21430	-49.928	-8.8178	-0.88637	-2.5688	-11.468	343.18
492.71430	-50.057	-8.8178	-0.88637	-2.5752	-11.459	338.02
493.21430	-49.882	-8.8178	-0.88637	-2.5675	-11.453	332.99
493.71430	-49.935	-8.8178	-0.88638	-2.5666	-11.446	327.89
494.21430	-50.003	-8.8178	-0.88637	-2.5735	-11.438	322.89
494.71430	-49.945	-8.8178	-0.88637	-2.5719	-11.432	318.1
495.21430	-50.08	-8.8178	-0.88638	-2.574	-11.424	313.5
495.71430	-49.946	-8.8179	-0.8864	-2.573	-11.419	308.83
496.21430	-49.873	-8.8179	-0.8864	-2.5673	-11.413	304.09
496.71430	-49.962	-8.818	-0.8864	-2.5736	-11.405	299.57
497.21430	-49.831	-8.818	-0.88641	-2.5643	-11.396	295.2
497.71430	-49.957	-8.8181	-0.88642	-2.5682	-11.389	290.93
498.21430	-49.811	-8.818	-0.88642	-2.5655	-11.383	286.64
498.71430	-49.82	-8.8181	-0.88642	-2.5623	-11.376	282.66
499.21430	-49.917	-8.8182	-0.88644	-2.5701	-11.368	278.65
499.71430	-49.707	-8.8182	-0.88643	-2.5582	-11.361	274.63
500.21430	-49.72	-8.8182	-0.88644	-2.5573	-11.354	270.93
500.71430	-49.604	-8.8182	-0.88644	-2.5546	-11.347	267.14
501.21430	-49.701	-8.8182	-0.88645	-2.5558	-11.339	263.49
501.71430	-49.73	-8.8182	-0.88644	-2.5574	-11.333	259.89
502.21430	-49.565	-8.8183	-0.88645	-2.5519	-11.325	256.78
502.71430	-49.731	-8.8183	-0.88644	-2.5582	-11.318	253.63
503.21430	-49.573	-8.8183	-0.88645	-2.5532	-11.311	250.49
503.71430	-49.43	-8.8182	-0.88645	-2.5439	-11.303	247.71
504.21430	-49.602	-8.8183	-0.88645	-2.5531	-11.297	245
504.71430	-49.345	-8.8183	-0.88645	-2.5388	-11.29	242.31
505.21430	-49.493	-8.8183	-0.88645	-2.5468	-11.283	239.78
505.71430	-49.298	-8.8182	-0.88643	-2.54	-11.274	237.59
506.21430	-49.241	-8.8181	-0.88643	-2.5347	-11.268	235.09
506.71430	-49.316	-8.8181	-0.88641	-2.5373	-11.261	232.89
507.21430	-49.062	-8.818	-0.88641	-2.527	-11.253	230.74
507.71430	-49.001	-8.818	-0.8864	-2.5189	-11.245	228.51
508.21430	-48.984	-8.818	-0.8864	-2.5232	-11.237	226.51
508.71430	-48.828	-8.8179	-0.88639	-2.5132	-11.232	224.68
509.21430	-49.012	-8.8179	-0.88638	-2.5215	-11.223	222.63
509.71430	-48.661	-8.8178	-0.88637	-2.5058	-11.215	220.51
510.21430	-48.647	-8.8178	-0.88637	-2.5032	-11.21	218.61
510.71430	-48.63	-8.8177	-0.88635	-2.5058	-11.201	216.71
511.21430	-48.361	-8.8176	-0.88634	-2.4869	-11.196	214.78
511.71430	-48.427	-8.8175	-0.88633	-2.4921	-11.187	213.18
512.21430	-48.127	-8.8174	-0.88631	-2.4797	-11.179	211.13
512.71430	-48.06	-8.8173	-0.88629	-2.4733	-11.172	209.53
513.21430	-48.136	-8.8172	-0.88627	-2.4793	-11.168	207.72
513.71430	-47.852	-8.8171	-0.88625	-2.4642	-11.16	205.81
514.21430	-48.009	-8.8169	-0.88622	-2.4697	-11.155	204.02
514.71430	-47.838	-8.8168	-0.88621	-2.4648	-11.148	202.13
515.21430	-47.664	-8.8167	-0.88618	-2.4508	-11.14	200.25
515.71430	-47.633	-8.8166	-0.88618	-2.4515	-11.133	198.4
516.21430	-47.364	-8.8164	-0.88615	-2.4399	-11.127	196.71
516.71430	-47.454	-8.8163	-0.88612	-2.4421	-11.118	194.87
517.21430	-47.137	-8.816	-0.88609	-2.4281	-11.113	193.06
517.71430	-47.16	-8.8159	-0.88607	-2.4264	-11.104	191.25
518.21430	-47.108	-8.8157	-0.88603	-2.4249	-11.096	189.19
518.71430	-46.82	-8.8157	-0.88603	-2.411	-11.089	187.4
519.21430	-46.917	-8.8155	-0.886	-2.4152	-11.083	185.51
519.71430	-46.677	-8.8153	-0.88598	-2.4032	-11.075	183.83
520.21430	-46.553	-8.8151	-0.88594	-2.3951	-11.069	182.01
520.71430	-46.595	-8.8149	-0.88591	-2.3984	-11.061	180.22
521.21430	-46.365	-8.8148	-0.88589	-2.3862	-11.054	178.41
521.71430	-46.505	-8.8146	-0.88586	-2.3936	-11.046	176.51
522.21430	-46.223	-8.8144	-0.88584	-2.3808	-11.039	174.72
522.71430	-46.259	-8.8142	-0.88579	-2.3802	-11.032	172.89
523.21430	-46.164	-8.8141	-0.88578	-2.381	-11.025	171.01
523.71430	-45.958	-8.8139	-0.88574	-2.3655	-11.019	169.41
524.21430	-46.052	-8.8136	-0.8857	-2.3709	-11.01	167.63
524.71430	-45.885	-8.8135	-0.88568	-2.3649	-11.004	165.98
525.21430	-45.723	-8.8133	-0.88565	-2.3549	-10.996	164
525.71430	-45.768	-8.813	-0.88561	-2.3581	-10.989	162.32
526.21430	-45.4	-8.8129	-0.88559	-2.3389	-10.983	160.62
526.71430	-45.522	-8.8126	-0.88553	-2.3428	-10.975	159.01
527.21430	-45.258	-8.8125	-0.88552	-2.3339	-10.967	157.26
527.71430	-45.21	-8.8123	-0.88548	-2.3275	-10.96	155.57
528.21430	-45.08	-8.8121	-0.88544	-2.3227	-10.952	153.8
528.71430	-44.958	-8.8119	-0.88541	-2.3164	-10.945	152.25
529.21430	-44.951	-8.8117	-0.88538	-2.3151	-10.938	150.54
529.71430	-44.807	-8.8115	-0.88536	-2.3108	-10.931	148.91
530.21430	-44.831	-8.8114	-0.88534	-2.3088	-10.925	147.46
530.71430	-44.641	-8.8114	-0.88533	-2.3	-10.916	145.81
531.21430	-44.449	-8.8112	-0.88531	-2.2904	-10.91	144.33
531.71430	-44.549	-8.811	-0.88528	-2.2943	-10.903	142.86
532.21430	-44.272	-8.8109	-0.88524	-2.2839	-10.897	141.47
532.71430	-44.279	-8.8106	-0.88521	-2.2782	-10.891	139.96
533.21430	-44.227	-8.8105	-0.8852	-2.2805	-10.884	138.46
533.71430	-44.014	-8.8103	-0.88517	-2.2656	-10.876	137.07
534.21430	-44.059	-8.8102	-0.88514	-2.2692	-10.869	135.77
534.71430	-43.659	-8.81	-0.88511	-2.2528	-10.862	134.19
535.21430	-43.799	-8.8098	-0.88508	-2.254	-10.855	132.78
535.71430	-43.588	-8.8097	-0.88506	-2.2489	-10.847	131.49
536.21430	-43.504	-8.8095	-0.88503	-2.2414	-10.84	130.17
536.71430	-43.502	-8.8095	-0.88503	-2.243	-10.832	128.94
537.21430	-43.216	-8.8094	-0.885	-2.2283	-10.825	127.58
537.71430	-43.254	-8.8092	-0.88497	-2.2273	-10.819	126.31
538.21430	-43.059	-8.809	-0.88495	-2.2198	-10.813	125.13
538.71430	-42.851	-8.8089	-0.88492	-2.2104	-10.804	123.9
539.21430	-42.883	-8.8087	-0.88489	-2.209	-10.797	122.63
539.71430	-42.669	-8.8085	-0.88487	-2.1985	-10.789	121.35
540.21430	-42.737	-8.8084	-0.88485	-2.1997	-10.783	120.3
540.71430	-42.54	-8.8082	-0.88482	-2.1927	-10.776	119.18
541.21430	-42.466	-8.808	-0.8848	-2.1855	-10.768	118.03
541.71430	-42.284	-8.8079	-0.88477	-2.1825	-10.761	117.01
542.21430	-42.044	-8.8076	-0.88473	-2.168	-10.754	115.92
542.71430	-41.963	-8.8074	-0.88469	-2.1629	-10.747	114.9
543.21430	-41.627	-8.8071	-0.88465	-2.147	-10.739	113.83
543.71430	-41.672	-8.807	-0.88463	-2.1473	-10.732	112.92
544.21430	-41.406	-8.8068	-0.88459	-2.1347	-10.724	111.98
544.71430	-41.29	-8.8066	-0.88457	-2.129	-10.717	110.93
545.21430	-41.376	-8.8066	-0.88456	-2.1321	-10.71	109.92
545.71430	-40.938	-8.8064	-0.88453	-2.1109	-10.704	108.99
546.21430	-41.071	-8.8062	-0.88451	-2.1168	-10.695	108.1
546.71430	-40.849	-8.8061	-0.88448	-2.1081	-10.687	107.03
547.21430	-40.677	-8.8059	-0.88445	-2.0966	-10.68	106.1
547.71430	-40.611	-8.8057	-0.88442	-2.0948	-10.674	105.28
548.21430	-40.41	-8.8056	-0.88441	-2.0835	-10.667	104.37
548.71430	-40.316	-8.8055	-0.88439	-2.0803	-10.658	103.47
549.21430	-40.204	-8.8054	-0.88437	-2.0741	-10.653	102.68
549.71430	-40.108	-8.8052	-0.88434	-2.0685	-10.647	101.78
550.21430	-39.932	-8.8051	-0.88432	-2.0615	-10.64	101.04
550.71430	-39.761	-8.805	-0.88431	-2.0493	-10.633	100.08
551.21430	-39.757	-8.805	-0.88431	-2.0513	-10.627	99.291
551.71430	-39.554	-8.8049	-0.88429	-2.0408	-10.619	98.524
552.21430	-39.469	-8.8048	-0.88427	-2.0326	-10.611	97.702
552.71430	-39.244	-8.8047	-0.88426	-2.0255	-10.605	96.855
553.21430	-39.155	-8.8045	-0.88423	-2.0199	-10.597	96.155
553.71430	-39.047	-8.8044	-0.88421	-2.0134	-10.59	95.351
554.21430	-38.831	-8.8043	-0.88419	-2.0015	-10.583	94.831
554.71430	-38.857	-8.8042	-0.88417	-2.0044	-10.576	93.999
555.21430	-38.449	-8.804	-0.88415	-1.9854	-10.568	93.313
555.71430	-38.528	-8.804	-0.88414	-1.985	-10.561	92.526
556.21430	-38.331	-8.8039	-0.88413	-1.9784	-10.553	91.864
556.71430	-38.111	-8.8038	-0.88411	-1.9632	-10.545	91.143
557.21430	-38.088	-8.8036	-0.88408	-1.9654	-10.539	90.525
557.71430	-37.843	-8.8035	-0.88406	-1.9526	-10.532	89.852
558.21430	-37.894	-8.8034	-0.88404	-1.952	-10.524	89.297
558.71430	-37.663	-8.8033	-0.88403	-1.9439	-10.516	88.685
559.21430	-37.26	-8.8032	-0.88401	-1.9212	-10.51	87.973
559.71430	-37.382	-8.803	-0.88399	-1.9281	-10.502	87.294
560.21430	-37.088	-8.8029	-0.88397	-1.9161	-10.495	86.694
560.71430	-37.096	-8.8029	-0.88396	-1.9148	-10.488	86.141
561.21430	-36.871	-8.8027	-0.88394	-1.9037	-10.484	85.531
561.71430	-36.736	-8.8026	-0.88391	-1.8934	-10.476	85.009
562.21430	-36.648	-8.8025	-0.88389	-1.8906	-10.467	84.356
562.71430	-36.434	-8.8025	-0.88389	-1.8794	-10.46	83.807
563.21430	-36.37	-8.8023	-0.88387	-1.8771	-10.453	83.271
563.71430	-36.059	-8.8022	-0.88386	-1.8632	-10.447	82.697
564.21430	-36.014	-8.8021	-0.88384	-1.8593	-10.439	82.163
564.71430	-35.965	-8.802	-0.88381	-1.8561	-10.433	81.683
565.21430	-35.668	-8.8018	-0.88379	-1.8392	-10.424	81.207
565.71430	-35.671	-8.8017	-0.88377	-1.8405	-10.416	80.642
566.21430	-35.414	-8.8016	-0.88375	-1.8279	-10.41	80.039
566.71430	-35.448	-8.8015	-0.88374	-1.8266	-10.403	79.586
567.21430	-35.169	-8.8014	-0.88373	-1.8166	-10.396	79.118
567.71430	-34.953	-8.8012	-0.8837	-1.8028	-10.389	78.529
568.21430	-35.142	-8.8012	-0.8837	-1.8139	-10.381	78.224
568.71430	-34.675	-8.8011	-0.88367	-1.7898	-10.373	77.754
569.21430	-34.609	-8.801	-0.88366	-1.7839	-10.366	77.12
569.71430	-34.421	-8.8008	-0.88364	-1.7807	-10.359	76.704
570.21430	-33.917	-8.8001	-0.88351	-1.7488	-10.354	76.302
570.71430	-33.875	-8.7998	-0.88347	-1.749	-10.342	75.741
571.21430	-33.589	-8.7997	-0.88345	-1.7361	-10.335	75.358
571.71430	-33.666	-8.7996	-0.88344	-1.7358	-10.329	75.014
572.21430	-33.228	-8.7996	-0.88343	-1.7168	-10.323	74.503
572.71430	-33.144	-8.7994	-0.88341	-1.7107	-10.314	73.989
573.21430	-33.299	-8.7993	-0.88339	-1.7185	-10.309	73.668
573.71430	-32.989	-8.7992	-0.88338	-1.7024	-10.3	73.214
574.21430	-32.9	-8.799	-0.88335	-1.6983	-10.293	72.807
574.71430	-32.748	-8.7989	-0.88333	-1.69	-10.284	72.388
575.21430	-32.604	-8.7988	-0.88332	-1.6803	-10.276	72.004
575.71430	-32.495	-8.7988	-0.88331	-1.6796	-10.272	71.597
576.21430	-32.29	-8.7987	-0.88329	-1.6672	-10.264	71.227
576.71430	-32.383	-8.7986	-0.88327	-1.6714	-10.257	70.851
577.21430	-32.143	-8.7985	-0.88325	-1.6611	-10.25	70.468
577.71430	-32.015	-8.7983	-0.88323	-1.6513	-10.243	70.051
578.21430	-31.993	-8.7982	-0.88321	-1.6533	-10.234	69.676
578.71430	-31.783	-8.7981	-0.88319	-1.6401	-10.228	69.334
579.21430	-31.661	-8.798	-0.88318	-1.6357	-10.223	69.056
579.71430	-31.543	-8.7979	-0.88316	-1.6308	-10.216	68.761
580.21430	-31.356	-8.7978	-0.88314	-1.6177	-10.207	68.341
580.71430	-31.17	-8.7976	-0.88311	-1.6102	-10.202	67.909
581.21430	-30.997	-8.7975	-0.88309	-1.6024	-10.194	67.599
581.71430	-31.089	-8.7974	-0.88307	-1.6045	-10.188	67.259
582.21430	-30.75	-8.7973	-0.88307	-1.5896	-10.181	66.835
582.71430	-30.708	-8.7972	-0.88304	-1.5853	-10.173	66.594
583.21430	-30.676	-8.7971	-0.88303	-1.5853	-10.166	66.166
583.71430	-30.362	-8.7969	-0.883	-1.5668	-10.157	65.924
584.21430	-30.405	-8.7968	-0.88298	-1.5681	-10.15	65.571
584.71430	-30.054	-8.7966	-0.88294	-1.5547	-10.142	65.381
585.21430	-29.908	-8.7965	-0.88292	-1.543	-10.135	64.929
585.71430	-30.002	-8.7965	-0.88293	-1.5474	-10.126	64.71
586.21430	-29.502	-8.7965	-0.88293	-1.5254	-10.12	64.369
586.71430	-29.659	-8.7963	-0.8829	-1.5305	-10.112	64.173
587.21430	-29.324	-8.7964	-0.8829	-1.5157	-10.105	63.787
587.71430	-29.252	-8.7963	-0.88289	-1.5082	-10.097	63.452
588.21430	-29.258	-8.7961	-0.88287	-1.5121	-10.09	63.317
588.71430	-28.915	-8.7961	-0.88286	-1.4925	-10.085	62.928
589.21430	-28.995	-8.796	-0.88285	-1.4929	-10.078	62.699
589.71430	-28.73	-8.7959	-0.88284	-1.4859	-10.069	62.465
590.21430	-28.7	-8.7957	-0.8828	-1.4811	-10.062	62.138
590.71430	-28.643	-8.7957	-0.8828	-1.4792	-10.056	61.953
591.21430	-28.397	-8.7955	-0.88277	-1.4656	-10.05	61.708
591.71430	-28.436	-8.7955	-0.88277	-1.467	-10.043	61.419
592.21430	-28.119	-8.7954	-0.88275	-1.4547	-10.035	61.149
592.71430	-27.889	-8.7953	-0.88275	-1.4394	-10.026	60.925
593.21430	-27.922	-8.7952	-0.88273	-1.4427	-10.019	60.599
593.71430	-27.602	-8.7952	-0.88272	-1.425	-10.012	60.362
594.21430	-27.663	-8.7951	-0.88271	-1.4288	-10.006	60.184
594.71430	-27.319	-8.795	-0.88269	-1.4142	-9.9982	59.772
595.21430	-27.591	-8.7951	-0.8827	-1.4236	-9.9912	59.651
595.71430	-27.792	-8.7952	-0.88272	-1.437	-9.9825	59.418
596.21430	-27.533	-8.7952	-0.88273	-1.4214	-9.9744	59.137
596.71430	-27.706	-8.7953	-0.88274	-1.4297	-9.9669	58.837
597.21430	-27.621	-8.7954	-0.88276	-1.428	-9.9613	58.674
597.71430	-27.429	-8.7954	-0.88276	-1.4138	-9.9531	58.323
598.21430	-27.587	-8.7955	-0.88278	-1.4249	-9.9464	58.272
598.71430	-27.353	-8.7956	-0.88279	-1.4127	-9.9393	57.895
599.21430	-27.386	-8.7957	-0.8828	-1.4142	-9.9328	57.607
599.71430	-27.212	-8.7957	-0.88281	-1.4086	-9.9249	57.515
600.21430	-27.126	-8.7957	-0.88282	-1.4007	-9.9182	57.259
600.71430	-27.165	-8.7958	-0.88282	-1.4065	-9.9108	57.056
601.21430	-26.84	-8.7958	-0.88283	-1.388	-9.9011	56.844
601.71430	-26.918	-8.7959	-0.88284	-1.3895	-9.8955	56.623
602.21430	-26.726	-8.7959	-0.88284	-1.382	-9.8861	56.474
602.71430	-26.587	-8.7959	-0.88284	-1.3704	-9.8795	56.254
603.21430	-26.242	-8.7957	-0.88282	-1.3564	-9.874	56.02
603.71430	-25.663	-8.7954	-0.88276	-1.3267	-9.8648	55.793
604.21430	-25.894	-8.7954	-0.88276	-1.3369	-9.8594	55.559
604.71430	-25.773	-8.7953	-0.88275	-1.3321	-9.8499	55.417
605.21430	-25.609	-8.7953	-0.88275	-1.3222	-9.8445	55.272
605.71430	-25.607	-8.7953	-0.88274	-1.3224	-9.8372	55.081
606.21430	-25.365	-8.7953	-0.88275	-1.3092	-9.832	54.878
606.71430	-25.336	-8.7953	-0.88274	-1.3087	-9.8243	54.672
607.21430	-25.247	-8.7953	-0.88274	-1.3069	-9.8175	54.534
607.71430	-25.044	-8.7952	-0.88273	-1.2928	-9.8114	54.314
608.21430	-25.019	-8.7953	-0.88274	-1.2931	-9.804	54.216
608.71430	-24.778	-8.7953	-0.88273	-1.2811	-9.7963	53.912
609.21430	-24.902	-8.7952	-0.88273	-1.2846	-9.7879	53.795
609.71430	-24.669	-8.7952	-0.88272	-1.2761	-9.7809	53.543
610.21430	-24.475	-8.7952	-0.88271	-1.2632	-9.775	53.458
610.71430	-24.601	-8.7952	-0.88271	-1.2714	-9.7669	53.338
611.21430	-24.307	-8.7952	-0.88273	-1.2568	-9.7599	53.05
611.71430	-24.253	-8.7952	-0.88272	-1.2533	-9.7518	52.875
612.21430	-24.137	-8.7951	-0.8827	-1.2485	-9.7431	52.671
612.71430	-24.11	-8.7952	-0.88271	-1.2439	-9.7372	52.491
613.21430	-24.074	-8.7951	-0.88271	-1.2437	-9.729	52.362
613.71430	-23.744	-8.795	-0.88269	-1.2273	-9.7216	52.137
614.21430	-23.801	-8.795	-0.88268	-1.2286	-9.7147	52.104
614.71430	-23.701	-8.7949	-0.88266	-1.2263	-9.7086	51.868
615.21430	-23.477	-8.7949	-0.88266	-1.2112	-9.6994	51.798
615.71430	-23.529	-8.7948	-0.88266	-1.2156	-9.6929	51.65
616.21430	-23.28	-8.7948	-0.88266	-1.2052	-9.686	51.392
616.71430	-23.301	-8.7948	-0.88265	-1.2019	-9.6791	51.23
617.21430	-23.156	-8.7948	-0.88266	-1.1993	-9.6721	51.089
617.71430	-23.065	-8.7947	-0.88264	-1.1898	-9.6667	50.984
618.21430	-22.996	-8.7947	-0.88265	-1.1888	-9.66	50.89
618.71430	-22.783	-8.7948	-0.88266	-1.179	-9.6502	50.723
619.21430	-22.91	-8.7949	-0.88267	-1.1822	-9.644	50.647
619.71430	-22.51	-8.7948	-0.88266	-1.1644	-9.6364	50.456
620.21430	-22.567	-8.7948	-0.88266	-1.1617	-9.6295	50.327
620.71430	-22.436	-8.7947	-0.88265	-1.1609	-9.6232	50.144
621.21430	-22.221	-8.7947	-0.88264	-1.1473	-9.6157	50.061
