Time(sec)	Force(kgf)	LGauge(mm)	Strain	Stress(MPa)	Stroke(mm)	TC1(C)
0.00000	-142.75	0.00014845	1.1716e-05	-17.815	0.05648	39.968
1.00000	-142.94	5.4187e-05	4.6909e-06	-17.853	0.054739	40.095
2.00000	-143.06	-1.8682e-05	1.3319e-06	-17.868	0.054762	40.06
3.00000	-143.06	-5.866e-05	-2.016e-06	-17.869	0.054264	40.033
4.00000	-142.96	-2.8498e-05	2.9794e-07	-17.851	0.054137	39.923
5.00000	-142.99	-9.7562e-05	-4.099e-06	-17.847	0.053491	39.912
6.00000	-142.85	-0.00012952	-7.8719e-06	-17.829	0.054654	39.815
7.00000	-142.77	-0.00010175	-3.9428e-06	-17.825	0.054877	39.755
8.00000	-142.79	-0.0001757	-9.0161e-06	-17.836	0.055396	39.749
9.00000	-146.11	0.00019026	1.5076e-05	-18.25	0.056794	39.709
10.00000	-160.42	0.0003957	2.7691e-05	-20.033	0.057484	41.113
11.00000	-175.71	0.0013887	9.3055e-05	-21.941	0.058523	46.029
12.00000	-182.26	0.0032675	0.00021781	-22.754	0.059349	53.599
13.00000	-183.22	0.0057966	0.00038846	-22.879	0.059099	61.946
14.00000	-184.29	0.0075358	0.00050412	-23.025	0.059459	69.316
15.00000	-185.23	0.0083956	0.0005591	-23.147	0.059094	75.048
15.50960	-185.36	0.0089444	0.00059456	-23.152	0.059305	77.45
16.50960	-184.97	0.010588	0.00070605	-23.11	0.059311	81.225
16.92480	-184.99	0.01151	0.00076685	-23.113	0.058612	82.748
17.92480	-184.64	0.013936	0.00092798	-23.07	0.058419	86.795
18.92480	-184.42	0.016796	0.0011188	-23.05	0.058741	91.666
19.92480	-184.44	0.019534	0.0013009	-23.062	0.058761	97.333
20.92480	-184.81	0.021859	0.0014559	-23.119	0.058713	102.89
21.92480	-185.03	0.024183	0.001611	-23.147	0.05813	108.04
22.92480	-185.07	0.026625	0.0017727	-23.148	0.058153	112.86
23.92480	-185.09	0.029179	0.0019441	-23.156	0.058052	117.78
24.92480	-185.1	0.031754	0.0021169	-23.153	0.057625	122.88
25.92480	-184.9	0.034339	0.0022874	-23.141	0.057789	127.83
26.92480	-184.96	0.036869	0.0024586	-23.158	0.057899	132.87
27.92480	-185.22	0.039385	0.0026241	-23.195	0.057105	137.8
28.92480	-185.3	0.042127	0.002808	-23.204	0.057285	142.61
29.92480	-185.36	0.044919	0.002992	-23.208	0.05657	147.64
30.92480	-185.26	0.047351	0.003153	-23.198	0.056746	152.68
31.92480	-185.19	0.049818	0.0033167	-23.202	0.056265	157.59
32.92480	-185.26	0.052369	0.0034873	-23.218	0.055563	162.42
33.92480	-185.35	0.055323	0.0036842	-23.233	0.055697	167.2
34.92480	-185.42	0.058562	0.0038985	-23.239	0.055899	172.17
35.92480	-185.35	0.061575	0.0040979	-23.235	0.055343	177.42
36.92480	-185.53	0.064393	0.0042858	-23.262	0.055303	182.62
37.92480	-185.63	0.067279	0.0044752	-23.284	0.05516	187.81
38.92480	-185.64	0.070272	0.0046745	-23.29	0.05515	192.59
39.92480	-185.83	0.073318	0.0048771	-23.315	0.054755	197.42
40.92480	-185.84	0.076737	0.005103	-23.317	0.055144	202.44
41.92480	-185.73	0.080049	0.0053232	-23.307	0.054387	207.48
42.92480	-185.56	0.083164	0.0055297	-23.293	0.054135	212.66
43.92480	-185.6	0.086494	0.00575	-23.307	0.054095	217.83
44.92480	-185.75	0.089856	0.0059711	-23.341	0.053647	222.95
45.92480	-185.98	0.093089	0.006186	-23.375	0.053996	227.97
46.92480	-186.01	0.096532	0.0064128	-23.381	0.054186	232.76
47.92480	-186.05	0.099959	0.0066423	-23.384	0.05346	237.79
48.92480	-185.96	0.10328	0.00686	-23.38	0.053247	242.83
49.92480	-185.99	0.10648	0.0070749	-23.387	0.05365	247.83
50.92480	-186.03	0.1098	0.0072954	-23.404	0.053012	252.92
51.92480	-186.23	0.11312	0.0075152	-23.433	0.053261	257.73
52.92480	-186.27	0.11626	0.0077219	-23.441	0.053005	262.68
53.92480	-186.38	0.11975	0.0079537	-23.452	0.053236	267.69
54.92480	-186.34	0.12319	0.0081814	-23.454	0.053051	272.69
55.92480	-186.36	0.12656	0.0084044	-23.466	0.05272	277.66
56.52990	-186.49	0.1287	0.0085459	-23.49	0.053007	280.68
57.52990	-186.57	0.13224	0.0087789	-23.5	0.052922	285.62
57.56810	-186.57	0.13238	0.0087884	-23.502	0.052986	285.81
58.56810	-186.56	0.13598	0.0090267	-23.506	0.052435	290.84
59.56810	-186.51	0.13951	0.0092605	-23.502	0.052386	295.85
60.56810	-186.62	0.1429	0.0094846	-23.521	0.052516	300.86
61.56810	-186.73	0.14648	0.0097196	-23.543	0.052347	305.92
62.56810	-186.92	0.14983	0.0099389	-23.576	0.052647	311
63.56810	-186.98	0.15313	0.010157	-23.59	0.052461	315.83
64.56810	-187.15	0.15643	0.010375	-23.612	0.052248	320.8
65.56810	-187.17	0.15989	0.010603	-23.616	0.052354	325.51
66.56810	-187.1	0.16361	0.010848	-23.613	0.05202	330.47
67.56810	-187.24	0.16724	0.011088	-23.637	0.052199	335.67
68.56810	-187.32	0.17104	0.011338	-23.659	0.051743	340.67
69.56810	-187.36	0.17478	0.011582	-23.672	0.052332	345.87
70.56810	-187.42	0.17845	0.011824	-23.688	0.05157	350.94
71.56810	-187.6	0.18174	0.012043	-23.71	0.051739	355.94
72.56810	-187.61	0.18524	0.012273	-23.711	0.05267	361.06
73.56810	-187.59	0.18894	0.012514	-23.715	0.052051	365.93
74.56810	-187.5	0.19275	0.012767	-23.714	0.051785	370.82
75.56810	-187.52	0.19673	0.013028	-23.726	0.052546	375.87
76.56810	-187.53	0.20076	0.013296	-23.734	0.052225	380.94
77.56810	-187.69	0.20461	0.01355	-23.759	0.052325	386.13
78.56810	-187.92	0.20816	0.013784	-23.789	0.051966	391.21
79.56810	-188.02	0.21182	0.014025	-23.805	0.052071	396.21
80.56810	-187.98	0.21538	0.014259	-23.805	0.051929	401.16
81.56810	-187.94	0.21905	0.014499	-23.806	0.051644	405.94
82.56810	-188.08	0.22277	0.014746	-23.833	0.051614	410.89
83.56810	-188.17	0.2266	0.014996	-23.852	0.051816	415.67
84.56810	-188.21	0.23071	0.015264	-23.865	0.051857	420.62
85.56810	-188.34	0.23475	0.015532	-23.886	0.051495	425.65
86.56810	-188.45	0.23865	0.015788	-23.899	0.051661	430.59
87.56810	-188.61	0.24258	0.016044	-23.927	0.052066	435.69
88.56810	-188.42	0.24672	0.016314	-23.908	0.051779	440.73
89.56810	-188.48	0.25069	0.016574	-23.926	0.051695	445.87
90.56810	-188.67	0.25449	0.016823	-23.957	0.051661	451.2
91.56810	-188.81	0.25814	0.017061	-23.985	0.051694	456.19
92.56810	-188.89	0.26181	0.017302	-24.004	0.051312	461.16
93.56810	-189.19	0.26526	0.017531	-24.041	0.051557	466.09
94.56810	-189.34	0.26886	0.017764	-24.066	0.051596	470.94
95.56810	-189.26	0.27277	0.01802	-24.06	0.051361	475.68
96.56810	-189.28	0.27671	0.018279	-24.064	0.051642	480.51
97.48510	-189.29	0.28036	0.018516	-24.079	0.051392	485.28
98.48510	-189.29	0.28415	0.018764	-24.092	0.051334	490.36
99.48510	-189.42	0.28798	0.019017	-24.113	0.051866	495.53
100.48510	-189.63	0.29176	0.019264	-24.143	0.052411	500.57
101.48510	-189.73	0.29561	0.019515	-24.159	0.052281	505.7
101.72190	-189.6	0.29647	0.019572	-24.15	0.052502	506.89
102.72190	-189.85	0.29988	0.019795	-24.181	0.051987	512.09
103.72190	-190	0.30326	0.020017	-24.203	0.051922	516.86
104.72190	-190.01	0.30679	0.020248	-24.207	0.052255	521.7
105.72190	-189.92	0.31042	0.020486	-24.198	0.052399	526.34
106.72190	-190.02	0.31411	0.020725	-24.223	0.052271	531.28
107.72190	-190.05	0.3179	0.020974	-24.237	0.052118	536.15
108.72190	-190.09	0.32173	0.021225	-24.246	0.052496	541.33
109.72190	-190.28	0.3255	0.02147	-24.275	0.052738	546.32
110.72190	-190.43	0.32952	0.021733	-24.297	0.053404	551.43
111.72190	-190.44	0.33359	0.021999	-24.303	0.053325	556.55
112.72190	-190.52	0.33739	0.022246	-24.318	0.052902	561.73
113.72190	-190.67	0.34098	0.022478	-24.343	0.053087	566.78
114.72190	-190.61	0.34476	0.022724	-24.348	0.053761	571.8
115.72190	-190.68	0.34844	0.022963	-24.363	0.054201	576.72
116.72190	-190.76	0.35185	0.023186	-24.379	0.053693	581.65
117.72190	-190.99	0.35552	0.023423	-24.414	0.054578	586.59
118.72190	-191	0.35947	0.023681	-24.418	0.054555	591.46
119.72190	-191.04	0.36341	0.023938	-24.429	0.054773	596.39
120.72190	-191.13	0.36723	0.024185	-24.444	0.054488	601.37
121.72190	-191.13	0.37116	0.024441	-24.454	0.055756	606.38
122.72190	-191.19	0.37505	0.024697	-24.467	0.055977	611.46
123.72190	-191.24	0.37898	0.024948	-24.486	0.056016	616.58
124.72190	-191.32	0.38269	0.02519	-24.502	0.055566	621.69
125.72190	-191.36	0.38633	0.025428	-24.513	0.05638	626.76
126.72190	-191.5	0.38995	0.025664	-24.532	0.0572	631.77
127.72190	-191.58	0.39341	0.025889	-24.542	0.057185	636.74
128.72190	-191.59	0.39698	0.026123	-24.551	0.057722	641.61
129.72190	-191.56	0.40059	0.026359	-24.558	0.057983	646.5
130.72190	-191.73	0.40424	0.026596	-24.585	0.05812	651.4
131.72190	-191.72	0.40837	0.026861	-24.594	0.059144	656.41
132.72190	-191.83	0.41244	0.027126	-24.615	0.059013	661.54
133.72190	-191.88	0.41587	0.027349	-24.622	0.058592	666.71
134.72190	-192.03	0.41914	0.027562	-24.648	0.059179	671.78
135.72190	-192.11	0.42267	0.027791	-24.657	0.059681	676.84
136.72190	-192.15	0.42617	0.028017	-24.669	0.06015	681.82
137.72190	-192.17	0.4295	0.028231	-24.681	0.061363	686.67
138.42700	-192.4	0.43188	0.028385	-24.714	0.060742	690.25
139.42700	-192.5	0.43534	0.028611	-24.732	0.06102	695.07
140.42700	-192.46	0.4387	0.028828	-24.726	0.061807	699.98
140.86480	-192.54	0.44025	0.028929	-24.748	0.061624	702.1
141.86480	-192.7	0.4435	0.029137	-24.776	0.062013	706.96
142.86480	-191.4	0.4449	0.029228	-24.609	0.062969	711.9
143.86480	-179.39	0.44442	0.029197	-23.057	0.063205	716.6
144.86480	-164.41	0.44312	0.029112	-21.13	0.063151	720.09
145.86480	-156.5	0.44165	0.029017	-20.118	0.063152	721.16
146.86480	-155.23	0.4418	0.029025	-19.959	0.063876	721.08
147.86480	-166.72	0.44341	0.029133	-21.433	0.063996	722.23
148.86480	-190.39	0.44778	0.029415	-24.485	0.063681	727.16
149.86480	-192.58	0.45969	0.030186	-24.782	0.064506	748.33
150.86480	-181.48	0.46044	0.030234	-23.358	0.063887	774.54
151.86480	-155.86	0.45391	0.029812	-20.048	0.064754	783.25
152.86480	-150.39	0.44574	0.029282	-19.341	0.064584	783.02
153.86480	-148.32	0.43746	0.028749	-19.062	0.065382	779.02
154.86480	-147.29	0.4309	0.028325	-18.925	0.064349	773.62
155.86480	-154.85	0.43178	0.028381	-19.89	0.065068	771.94
156.86480	-100.03	0.44492	0.02923	-12.859	0.065788	774.95
157.86480	-96.659	0.45262	0.02973	-12.434	0.065968	780.96
158.86480	-96.978	0.45933	0.030165	-12.481	0.064895	788.11
159.86480	-97.026	0.46503	0.030534	-12.492	0.068678	795.25
160.86480	-97.186	0.46961	0.030831	-12.515	0.074205	801.77
161.86480	-97.361	0.47351	0.031084	-12.54	0.075209	807.47
162.86480	-97.445	0.47723	0.031322	-12.554	0.074104	812.58
163.86480	-97.586	0.48098	0.031565	-12.574	0.073999	817.42
164.86480	-97.597	0.48457	0.031797	-12.579	0.073451	822.19
165.86480	-97.626	0.48857	0.032056	-12.589	0.072667	826.84
166.86480	-97.652	0.49281	0.032328	-12.596	0.07385	831.74
167.86480	-97.782	0.49701	0.032598	-12.617	0.073686	836.84
168.86480	-97.887	0.50138	0.032881	-12.629	0.072378	841.84
169.86480	-97.892	0.50575	0.033161	-12.631	0.072959	847.02
170.86480	-97.972	0.5099	0.033429	-12.644	0.070656	852.09
171.86480	-98.041	0.51418	0.033705	-12.663	0.071186	857.04
172.86480	-98.157	0.51809	0.033956	-12.68	0.069606	862.07
173.86480	-98.226	0.52261	0.034245	-12.696	0.070359	867.17
174.86480	-98.317	0.52722	0.034545	-12.708	0.071137	872.4
175.86480	-98.325	0.53161	0.034827	-12.712	0.077266	877.6
176.86480	-98.355	0.53553	0.035079	-12.715	0.077183	882.76
177.86480	-98.393	0.53956	0.035339	-12.728	0.073557	887.52
178.86480	-98.408	0.54382	0.035616	-12.735	0.069848	892.23
179.38400	-98.509	0.54603	0.035757	-12.742	0.071657	894.74
180.38400	-98.601	0.5503	0.036031	-12.76	0.077502	899.8
180.41160	-98.546	0.55042	0.036039	-12.753	0.077647	899.95
181.41160	-98.4	0.55458	0.036308	-12.734	0.078352	904.98
182.41160	-98.495	0.55891	0.036584	-12.758	0.078363	910
183.41160	-98.568	0.56304	0.03685	-12.773	0.078985	914.91
184.41160	-98.632	0.56736	0.037129	-12.782	0.078089	919.54
185.41160	-98.712	0.57199	0.037426	-12.801	0.077879	923.91
186.41160	-96.94	0.57624	0.037699	-12.568	0.077771	933.48
187.41160	-89.92	0.57633	0.037705	-11.654	0.076922	939.07
188.41160	-94.343	0.57727	0.037764	-12.231	0.075958	940.43
189.41160	-99.209	0.57976	0.037923	-12.866	0.074969	943.67
190.41160	-98.905	0.58401	0.038196	-12.834	0.074082	948.39
191.41160	-98.982	0.58828	0.03847	-12.845	0.073017	953.84
192.41160	-98.879	0.59229	0.038727	-12.836	0.07314	959.77
193.41160	-99.112	0.59524	0.038915	-12.864	0.078172	965.53
194.41160	-99.125	0.59867	0.039136	-12.87	0.076658	969.78
195.41160	-99.073	0.60232	0.03937	-12.87	0.07183	974.89
196.41160	-99.253	0.60573	0.039588	-12.896	0.073718	980.26
197.41160	-99.457	0.60893	0.039794	-12.926	0.07722	985.06
198.41160	-99.477	0.61264	0.040032	-12.926	0.07588	989.28
199.41160	-99.353	0.61684	0.0403	-12.915	0.073798	993.66
200.41160	-99.467	0.62176	0.040615	-12.931	0.075148	997.62
201.41160	-99.247	0.62871	0.041058	-12.91	0.075764	1001.3
202.41160	-99.168	0.63667	0.041569	-12.909	0.075323	1006.4
203.41160	-99.159	0.64436	0.04206	-12.918	0.075247	1011.8
204.41160	-99.167	0.65339	0.042639	-12.924	0.075214	1013.2
205.41160	-98.83	0.66458	0.043354	-12.885	0.074555	1018.5
206.41160	-98.582	0.67081	0.043752	-12.862	0.074372	1028.2
207.41160	-93.402	0.67132	0.043783	-12.186	0.073579	1038.6
208.41160	-86.733	0.67099	0.043764	-11.315	0.072619	1045.7
209.41160	-82.941	0.67073	0.043747	-10.819	0.076837	1048.9
210.41160	-80.265	0.67032	0.04372	-10.467	0.078642	1053.7
211.41160	-76.814	0.66964	0.043677	-10.018	0.077213	1059.2
212.41160	-74.16	0.66907	0.043642	-9.6711	0.074973	1063.5
213.41160	-73.439	0.66899	0.043637	-9.574	0.071505	1066.9
214.41160	-72.813	0.66909	0.043641	-9.4964	0.073751	1071
215.41160	-72.299	0.66922	0.043651	-9.4337	0.077083	1075.5
216.41160	-71.521	0.66928	0.043653	-9.3305	0.078978	1080.1
217.41160	-70.691	0.66924	0.043649	-9.2169	0.079788	1084.8
218.41160	-70.354	0.66938	0.043658	-9.1727	0.079813	1089.4
219.41160	-69.707	0.66948	0.043666	-9.0923	0.078769	1094.9
220.31070	-68.763	0.66936	0.043658	-8.9648	0.079599	1100
221.31070	-67.742	0.66889	0.043627	-8.8364	0.078322	1105.5
222.31070	-67.275	0.66852	0.043602	-8.7771	0.078018	1110.4
223.31070	-66.303	0.66863	0.043609	-8.6497	0.076921	1115.2
224.31070	-65.667	0.66862	0.043607	-8.5638	0.077154	1120
225.31070	-65.36	0.66836	0.043592	-8.5245	0.077099	1125.1
225.54770	-65.055	0.66833	0.043591	-8.4865	0.077624	1126.3
226.54770	-64.276	0.66825	0.043588	-8.3811	0.078713	1131.7
227.54770	-63.696	0.66775	0.043558	-8.3066	0.080419	1137.2
228.54770	-62.921	0.66714	0.043516	-8.208	0.080778	1141.9
229.54770	-62.752	0.66652	0.043478	-8.1822	0.081417	1146.6
230.54770	-62.688	0.66552	0.043413	-8.1776	0.081786	1151.1
231.54770	-62.593	0.66427	0.043334	-8.1654	0.081349	1156.2
232.54770	-62.34	0.66208	0.043195	-8.1292	0.080466	1161.6
233.54770	-61.799	0.65986	0.043053	-8.0507	0.079858	1166.3
234.54770	-61.133	0.65806	0.042938	-7.9634	0.079989	1170.6
235.54770	-60.742	0.6566	0.042845	-7.9184	0.079073	1174.9
236.54770	-60.406	0.65449	0.04271	-7.8721	0.079064	1180.1
237.54770	-59.804	0.65165	0.042528	-7.7928	0.07929	1185.5
238.54770	-59.142	0.64766	0.042273	-7.7038	0.078489	1190.8
239.54770	-58.294	0.6424	0.041937	-7.5883	0.078888	1196.4
240.54770	-57.198	0.63475	0.041447	-7.4444	0.081844	1201.9
241.54770	-56.838	0.62213	0.040639	-7.3891	0.083589	1204.4
242.54770	-56.76	0.60866	0.039776	-7.3757	0.084148	1203.7
243.54770	-56.93	0.59519	0.038914	-7.3967	0.083191	1202.8
244.54770	-57.317	0.58192	0.038062	-7.4324	0.082157	1202.7
245.54770	-57.547	0.56706	0.037105	-7.4572	0.082274	1202.3
246.54770	-57.727	0.55517	0.036344	-7.4732	0.08102	1200.6
247.54770	-57.757	0.5458	0.035743	-7.4734	0.08083	1199
248.54770	-57.755	0.53749	0.035205	-7.4681	0.080676	1198.3
249.54770	-57.878	0.52983	0.034711	-7.4853	0.080481	1198.4
250.54770	-58.092	0.52176	0.034192	-7.5073	0.082923	1199.2
251.54770	-58.022	0.5138	0.033678	-7.495	0.083374	1199.2
252.54770	-58.061	0.50606	0.033182	-7.4906	0.083971	1199.4
253.54770	-58.032	0.49794	0.032658	-7.4876	0.084113	1199.9
254.54770	-58.059	0.48943	0.032109	-7.4854	0.08361	1200.2
255.54770	-58	0.48125	0.031582	-7.4737	0.083786	1200.3
256.54770	-58.105	0.47303	0.031052	-7.4848	0.083639	1200.6
257.54770	-58.232	0.46325	0.030419	-7.4968	0.084855	1202
258.54770	-58.424	0.45469	0.029867	-7.5193	0.083174	1200.5
259.54770	-58.503	0.44842	0.02946	-7.524	0.083154	1199.6
260.54770	-58.489	0.44285	0.029099	-7.5124	0.083003	1199.8
261.25330	-58.45	0.43834	0.028808	-7.5129	0.083188	1200.5
262.25330	-58.502	0.43187	0.028389	-7.5147	0.082496	1200.1
263.25330	-58.497	0.42648	0.028038	-7.5129	0.082399	1200
264.25330	-58.505	0.42047	0.027647	-7.5091	0.08187	1200.5
264.67820	-58.509	0.41786	0.027478	-7.5138	0.081955	1200.9
265.67820	-58.518	0.41269	0.027142	-7.5114	0.082104	1199.5
266.67820	-58.558	0.40851	0.026869	-7.5102	0.082366	1199.6
267.67820	-58.456	0.40371	0.026559	-7.4909	0.083678	1200.1
268.67820	-58.585	0.39847	0.026217	-7.5111	0.086541	1200.3
269.67820	-58.626	0.3933	0.025883	-7.5172	0.085887	1200.3
270.67820	-58.692	0.38804	0.025542	-7.5212	0.083854	1200.3
271.67820	-58.734	0.38256	0.025184	-7.5245	0.083049	1201.1
272.67820	-58.972	0.37787	0.024878	-7.5447	0.082329	1199.4
273.67820	-58.596	0.37529	0.024712	-7.4966	0.084145	1198.8
274.67820	-58.287	0.3729	0.024555	-7.4614	0.085919	1199.1
275.67820	-58.359	0.36998	0.024367	-7.4697	0.087637	1199.5
276.67820	-58.397	0.36659	0.024146	-7.4765	0.088353	1199.9
277.67820	-58.579	0.36284	0.023904	-7.4898	0.086181	1200.1
278.67820	-58.633	0.35901	0.023652	-7.4967	0.086245	1200.4
279.67820	-58.732	0.35492	0.023389	-7.5025	0.086266	1200.6
280.67820	-58.535	0.35059	0.023106	-7.4758	0.085433	1200.5
281.67820	-58.594	0.34629	0.022827	-7.4868	0.085271	1200.3
282.67820	-58.641	0.34222	0.022559	-7.4978	0.085315	1200.2
283.67820	-58.751	0.33801	0.022286	-7.5044	0.084704	1200.2
284.67820	-58.855	0.33366	0.022002	-7.5118	0.086142	1200.1
285.67820	-58.75	0.32962	0.021738	-7.4933	0.087185	1200
286.67820	-58.719	0.32535	0.021461	-7.4904	0.088329	1200
287.67820	-58.694	0.32103	0.021178	-7.4867	0.087493	1199.7
288.67820	-58.908	0.31716	0.020927	-7.5173	0.087711	1199.6
289.67820	-58.874	0.31399	0.02072	-7.5058	0.085511	1199.7
290.67820	-58.949	0.31044	0.020488	-7.5089	0.086149	1199.9
291.67820	-58.796	0.30656	0.020235	-7.4883	0.085009	1200
292.67820	-58.912	0.30259	0.019975	-7.498	0.08567	1200
293.67820	-58.705	0.29869	0.019718	-7.4792	0.086271	1200.2
294.67820	-58.916	0.29435	0.019434	-7.5043	0.085461	1200.3
295.67820	-59.119	0.29017	0.019159	-7.5262	0.085791	1200.3
296.67820	-59.134	0.28591	0.018881	-7.5242	0.085259	1200.2
297.67820	-59.11	0.28185	0.018614	-7.5173	0.085214	1200.1
298.67820	-59.142	0.27845	0.018392	-7.5192	0.084858	1199.7
299.67820	-58.957	0.27574	0.018213	-7.5007	0.08437	1199.7
300.67820	-59.093	0.27245	0.017999	-7.5169	0.08384	1199.8
301.67820	-59.238	0.26912	0.017781	-7.5301	0.087518	1199.8
302.29000	-59.152	0.26714	0.017652	-7.5171	0.088161	1199.8
303.29000	-59.108	0.26374	0.017428	-7.5139	0.087837	1199.8
303.81800	-59.355	0.26169	0.017294	-7.5394	0.088667	1200
304.81800	-59.425	0.25779	0.017039	-7.5441	0.086772	1200.1
305.81800	-59.424	0.25341	0.016754	-7.5442	0.087009	1200.1
306.81800	-59.483	0.24904	0.016468	-7.5553	0.086887	1200.1
307.81800	-59.596	0.24455	0.016173	-7.5632	0.087003	1199.9
308.81800	-59.69	0.24012	0.015883	-7.5704	0.087452	1200
309.81800	-59.762	0.23555	0.015583	-7.5757	0.087728	1200.1
310.81800	-59.776	0.23078	0.01527	-7.5826	0.088976	1200.2
311.81800	-59.899	0.22579	0.014942	-7.5897	0.088586	1200.2
312.81800	-59.914	0.2207	0.014609	-7.5904	0.087365	1200
313.81800	-60.035	0.21605	0.014302	-7.6051	0.087439	1199.9
314.81800	-60.052	0.21146	0.014001	-7.6102	0.08841	1200.1
315.81800	-60.184	0.20661	0.013683	-7.6191	0.089601	1200.1
316.81800	-60.202	0.20187	0.013371	-7.6177	0.090107	1200
317.81800	-60.185	0.19701	0.013049	-7.6155	0.091206	1200.1
318.81800	-60.164	0.19225	0.012736	-7.6103	0.088988	1200.2
319.81800	-60.412	0.18717	0.012401	-7.6403	0.089421	1200.4
320.81800	-60.516	0.18208	0.012066	-7.6464	0.089109	1200.3
321.81800	-60.589	0.17726	0.011748	-7.6527	0.090012	1200.3
322.81800	-60.586	0.17219	0.011415	-7.6464	0.090248	1200.3
323.81800	-60.63	0.16711	0.011081	-7.6516	0.089784	1200.1
324.81800	-60.632	0.1622	0.010756	-7.6523	0.088397	1200.1
325.81800	-60.644	0.15725	0.010429	-7.655	0.090116	1200.1
326.81800	-60.797	0.152	0.010083	-7.673	0.089424	1200.1
327.81800	-60.844	0.14693	0.0097491	-7.6677	0.08816	1200
328.81800	-60.891	0.14141	0.009384	-7.6752	0.089507	1200
329.81800	-60.89	0.13554	0.0089986	-7.6688	0.087958	1200.1
330.81800	-60.895	0.12972	0.0086145	-7.6652	0.086716	1200
331.81800	-60.958	0.1238	0.0082223	-7.6778	0.086713	1200
332.81800	-61.1	0.11758	0.0078091	-7.6895	0.087403	1200
333.81800	-61.195	0.11164	0.0074192	-7.6966	0.089109	1200
334.81800	-61.216	0.10524	0.0069944	-7.6931	0.089857	1200.3
335.81800	-61.145	0.098607	0.0065564	-7.6864	0.091289	1200.2
336.81800	-61.279	0.091841	0.006108	-7.6969	0.092093	1200.2
337.81800	-61.236	0.084897	0.0056502	-7.692	0.093111	1200.1
338.81800	-61.531	0.078394	0.0052181	-7.7248	0.09096	1200
339.81800	-61.665	0.071507	0.0047614	-7.7343	0.09112	1200
340.81800	-61.623	0.064754	0.0043131	-7.7251	0.090621	1199.9
341.81800	-61.612	0.05803	0.0038662	-7.7188	0.090762	1200.1
342.81800	-61.677	0.0511	0.0034039	-7.7261	0.090826	1200.1
343.23110	-61.789	0.048381	0.0032236	-7.7365	0.090136	1200.1
344.23110	-61.737	0.041284	0.0027512	-7.7238	0.089427	1200
344.25930	-61.854	0.041063	0.0027363	-7.7393	0.089509	1200
345.25930	-61.774	0.033791	0.0022523	-7.7275	0.08901	1200
346.25930	-61.789	0.02642	0.0017592	-7.7269	0.08928	1200
347.25930	-61.854	0.018836	0.0012547	-7.7387	0.091755	1199.9
348.25930	-61.915	0.011547	0.00077002	-7.7386	0.09382	1199.8
349.25930	-61.852	0.0042103	0.0002781	-7.7241	0.094486	1199.9
350.25930	-61.795	-0.0032825	-0.00022092	-7.7157	0.095157	1200
351.25930	-61.683	-0.010763	-0.00071696	-7.6933	0.093353	1200.1
352.25930	-61.649	-0.018062	-0.0012059	-7.6907	0.091941	1200.1
353.25930	-61.667	-0.025176	-0.0016779	-7.6856	0.091351	1200
354.25930	-61.699	-0.032382	-0.0021603	-7.6877	0.092157	1199.9
355.25930	-61.584	-0.03933	-0.0026243	-7.6701	0.091336	1200
356.25930	-61.656	-0.046451	-0.0031006	-7.6784	0.090751	1200
357.25930	-61.66	-0.053479	-0.0035697	-7.6726	0.091542	1200
358.25930	-61.72	-0.060598	-0.0040472	-7.682	0.089987	1200.1
359.25930	-61.933	-0.067729	-0.0045235	-7.6972	0.089811	1200.1
360.25930	-61.952	-0.075086	-0.0050141	-7.6952	0.090719	1200.1
361.25930	-61.79	-0.081764	-0.0054605	-7.6681	0.089837	1200.1
362.25930	-61.782	-0.088275	-0.0059001	-7.6714	0.089295	1200.1
363.25930	-61.809	-0.094946	-0.0063486	-7.6703	0.089171	1200.1
364.25930	-61.893	-0.10186	-0.006813	-7.6775	0.092948	1200.2
365.25930	-61.959	-0.10881	-0.007279	-7.681	0.093974	1200.1
366.25930	-61.918	-0.11553	-0.0077285	-7.6699	0.09442	1199.9
367.25930	-61.819	-0.12143	-0.0081246	-7.6548	0.093843	1199.9
368.25930	-61.909	-0.12764	-0.0085452	-7.6669	0.094389	1200
369.25930	-62.026	-0.13415	-0.0089849	-7.6744	0.094292	1200
370.25930	-62.03	-0.14046	-0.0094059	-7.6733	0.093453	1200
371.25930	-62.014	-0.14635	-0.0098007	-7.6658	0.092948	1200.1
372.25930	-62.013	-0.1519	-0.010178	-7.6607	0.092937	1200
373.25930	-62.043	-0.15772	-0.010572	-7.6643	0.09135	1200.1
374.25930	-62.031	-0.1634	-0.010955	-7.6632	0.09146	1200.2
375.25930	-62.058	-0.16921	-0.011346	-7.6662	0.090919	1200.1
376.25930	-62.079	-0.17451	-0.011702	-7.6626	0.089093	1200
377.25930	-61.963	-0.17972	-0.012052	-7.6392	0.088843	1200.1
378.25930	-61.939	-0.18475	-0.012391	-7.6388	0.092481	1200.1
379.25930	-61.862	-0.19008	-0.012753	-7.6285	0.094516	1200.1
380.25930	-61.977	-0.19547	-0.013119	-7.644	0.093467	1200
381.25930	-61.95	-0.2009	-0.013486	-7.6362	0.094215	1200.1
382.25930	-62.049	-0.20631	-0.013848	-7.6378	0.093608	1199.9
383.25930	-62.071	-0.21159	-0.014204	-7.6386	0.093217	1199.6
384.18620	-61.92	-0.21578	-0.014487	-7.6155	0.09185	1199.7
385.18620	-61.898	-0.22005	-0.014775	-7.6189	0.092059	1199.9
386.18620	-62.069	-0.22459	-0.015084	-7.6363	0.090805	1200
387.18620	-62.135	-0.22948	-0.015417	-7.6369	0.091283	1200.1
388.18620	-62.163	-0.23427	-0.01574	-7.6349	0.090643	1200.1
388.62200	-62.078	-0.23634	-0.01588	-7.6281	0.090004	1200.1
389.62200	-62.157	-0.24121	-0.016209	-7.6368	0.089915	1200.1
390.62200	-62.177	-0.24564	-0.016507	-7.6323	0.089234	1200.1
391.62200	-62.133	-0.2501	-0.016811	-7.6266	0.088215	1200.1
392.62200	-62.098	-0.25435	-0.0171	-7.6258	0.089161	1200
393.62200	-62.215	-0.25865	-0.017392	-7.6355	0.09203	1200
394.62200	-62.269	-0.26323	-0.017704	-7.6416	0.093958	1200.3
395.62200	-62.514	-0.26845	-0.01806	-7.6663	0.091189	1200.2
396.62200	-62.603	-0.2733	-0.018386	-7.6717	0.089886	1199.9
397.62200	-62.445	-0.27773	-0.018687	-7.6504	0.088041	1199.7
398.62200	-62.442	-0.28202	-0.018976	-7.6506	0.086636	1199.9
399.62200	-62.447	-0.28604	-0.019253	-7.6502	0.089824	1199.9
400.62200	-62.529	-0.29055	-0.01956	-7.6565	0.08937	1200
401.62200	-62.593	-0.29532	-0.019887	-7.6632	0.091153	1199.9
402.62200	-62.668	-0.29999	-0.020203	-7.6689	0.091362	1199.9
403.62200	-62.756	-0.30455	-0.020514	-7.6754	0.091927	1200
404.62200	-62.704	-0.30896	-0.020811	-7.6699	0.090707	1200.1
405.62200	-62.763	-0.31329	-0.021104	-7.6766	0.090958	1200.1
406.62200	-62.88	-0.31773	-0.021409	-7.6856	0.089886	1200
407.62200	-62.985	-0.32281	-0.021755	-7.6932	0.089949	1199.8
408.62200	-62.994	-0.32752	-0.022077	-7.6929	0.089859	1199.8
409.62200	-63.054	-0.33201	-0.022382	-7.698	0.089737	1199.9
410.62200	-63.12	-0.33621	-0.022665	-7.7051	0.088892	1200
411.62200	-63.132	-0.34001	-0.022922	-7.7011	0.088275	1200
412.62200	-63.086	-0.34387	-0.023188	-7.6941	0.090753	1200.1
413.62200	-63.064	-0.34795	-0.02347	-7.6886	0.092774	1200.1
414.62200	-62.957	-0.35178	-0.023731	-7.6746	0.090807	1200.1
415.62200	-62.993	-0.35517	-0.02396	-7.6838	0.09065	1200.2
416.62200	-63.03	-0.35836	-0.024179	-7.6828	0.089914	1200.3
417.62200	-62.943	-0.36158	-0.024396	-7.6691	0.089905	1200.3
418.62200	-62.857	-0.36486	-0.024622	-7.6576	0.088454	1200.3
419.62200	-62.765	-0.36804	-0.024842	-7.6449	0.089438	1200.1
420.62200	-62.641	-0.37172	-0.025094	-7.6295	0.088264	1199.8
421.62200	-62.765	-0.37957	-0.025628	-7.6433	0.088521	1196.7
422.62200	-63.035	-0.38793	-0.0262	-7.6675	0.088935	1191.7
423.62200	-62.935	-0.39544	-0.026714	-7.6528	0.089807	1186.1
424.62200	-62.886	-0.4019	-0.027159	-7.6428	0.089561	1180.2
425.22400	-62.806	-0.40564	-0.027415	-7.6333	0.088282	1176.9
426.22400	-62.805	-0.41179	-0.027838	-7.6283	0.089448	1171.4
427.22400	-62.679	-0.41766	-0.028242	-7.6047	0.090516	1166.1
427.75170	-62.506	-0.4205	-0.028436	-7.5878	0.089954	1163.3
428.75170	-62.468	-0.42655	-0.028851	-7.5831	0.089459	1158.4
429.75170	-62.481	-0.43312	-0.029302	-7.578	0.090394	1153.2
430.75170	-62.379	-0.43984	-0.029764	-7.5608	0.089028	1148.2
431.75170	-62.237	-0.44672	-0.030236	-7.5408	0.0885	1143.2
432.75170	-62.16	-0.45337	-0.030692	-7.5287	0.090352	1138.2
433.75170	-62.118	-0.45995	-0.031143	-7.5246	0.089039	1133.2
434.75170	-61.979	-0.46647	-0.031592	-7.5016	0.088789	1128.2
435.75170	-62.009	-0.47306	-0.032043	-7.5028	0.090132	1123.2
436.75170	-62.065	-0.47926	-0.032469	-7.4976	0.089462	1118.1
437.75170	-62.008	-0.48516	-0.032873	-7.4862	0.089437	1113.3
438.75170	-61.943	-0.4909	-0.03327	-7.4787	0.089659	1108.4
439.75170	-62.052	-0.49687	-0.033682	-7.4912	0.090001	1103.3
440.75170	-62.013	-0.50223	-0.034053	-7.4845	0.090468	1098.3
441.75170	-61.975	-0.50724	-0.034399	-7.4783	0.089997	1093.3
442.75170	-61.905	-0.51215	-0.034738	-7.4698	0.090657	1088.3
443.75170	-61.98	-0.51727	-0.035089	-7.4665	0.088894	1083.3
444.75170	-62.035	-0.52199	-0.035417	-7.4711	0.090105	1078.3
445.75170	-62.129	-0.52652	-0.035731	-7.4825	0.089312	1073.3
446.75170	-62.264	-0.5311	-0.03605	-7.5014	0.089631	1068.3
447.75170	-62.321	-0.53545	-0.036352	-7.5067	0.09085	1063.2
448.75170	-62.369	-0.53994	-0.036662	-7.5099	0.091026	1058.3
449.75170	-62.508	-0.5446	-0.036984	-7.5186	0.090079	1053.3
450.75170	-62.573	-0.54922	-0.037301	-7.5295	0.090406	1048.4
451.75170	-62.691	-0.55366	-0.037608	-7.5392	0.08965	1043.2
452.75170	-62.565	-0.55821	-0.037923	-7.5227	0.090309	1038.4
453.75170	-62.826	-0.56282	-0.038242	-7.5533	0.091237	1033.2
454.75170	-63.048	-0.56776	-0.038584	-7.5757	0.09116	1028.3
455.75170	-63.167	-0.57254	-0.038918	-7.5868	0.090646	1023.2
456.75170	-63.316	-0.57745	-0.039259	-7.5982	0.091341	1018.2
457.75170	-63.366	-0.58239	-0.0396	-7.6046	0.091186	1013.1
458.75170	-63.404	-0.58704	-0.039924	-7.6088	0.090565	1008.1
459.75170	-63.386	-0.59207	-0.040273	-7.6022	0.091083	1003.1
460.75170	-63.658	-0.054578	-0.0037101	-7.9237	0.077488	998.61
461.10000	-61.839	0.0006069	4.5877e-05	-7.7102	0.085339	996.9
461.10500	-63.574	-0.0023324	-0.00015236	-7.9361	0.086977	996.78
461.11000	-66.198	-0.00027696	-1.5288e-05	-8.2267	0.082975	996.68
461.11500	-64.417	-0.0017495	-0.00011844	-8.0686	0.063992	996.69
461.12000	-64.943	-0.0033696	-0.00022276	-8.1493	0.019641	996.7
461.12500	-65.606	-0.0033512	-0.00020349	-8.2332	-0.036123	996.66
461.13000	-63.45	-0.0032233	-0.00019654	-7.7373	-0.10069	996.6
461.13500	-58.871	-0.0032135	-0.00021034	-7.2246	-0.15708	996.49
461.14000	-58.687	-0.0032818	-0.00023324	-7.4823	-0.21285	996.38
461.14500	-63.506	-0.0033076	-0.00021965	-8.0619	-0.2672	996.4
461.15000	-66.087	-0.0039068	-0.00025518	-8.3256	-0.31865	996.41
461.15500	-66.538	-0.0042329	-0.0002656	-8.2872	-0.36731	996.46
461.16000	-64.843	-0.0042771	-0.00028688	-8.0624	-0.42906	996.51
461.16500	-64.643	-0.0043501	-0.00029213	-8.0974	-0.50156	996.39
461.17000	-64.635	-0.0044423	-0.0002963	-8.0862	-0.56	996.28
461.17500	-63.663	-0.0045548	-0.0002761	-7.9512	-0.60978	996.28
461.18000	-61.002	-0.0046561	-0.00029956	-7.6517	-0.66808	996.28
461.18500	-62.558	-0.0050318	-0.00032362	-7.9186	-0.73202	996.32
461.19000	-66.609	-0.0053545	-0.0003692	-8.4	-0.78151	996.34
461.19500	-68.855	-0.0052036	-0.00034515	-8.582	-0.83786	996.28
461.20000	-67.947	-0.005214	-0.00033647	-8.4147	-0.90648	996.21
461.20500	-66.053	-0.0055137	-0.0003519	-8.1296	-0.97702	996.17
461.21000	-62.114	-0.0053247	-0.00036139	-7.7094	-1.0221	996.12
461.21500	-62.702	-0.00534	-0.00036694	-7.7986	-1.0766	996.1
461.22000	-62.866	-0.0055756	-0.00037689	-7.8764	-1.1396	996.09
461.22500	-63.095	-0.0058276	-0.00037724	-7.9537	-1.1967	996.1
461.23000	-65.341	-0.0059399	-0.00037661	-8.2665	-1.2517	996.12
461.23500	-68.269	-0.0061526	-0.00041343	-8.6909	-1.3093	996.07
461.24000	-69.83	-0.0059332	-0.00040456	-8.7318	-1.3683	996.02
461.24500	-66.589	-0.0057111	-0.00038612	-8.26	-1.4264	996
461.25000	-64.223	-0.0061113	-0.00040569	-7.9499	-1.4846	995.99
461.25500	-62.645	-0.0060234	-0.00039322	-7.8072	-1.5413	995.95
461.26000	-63.793	-0.0063079	-0.00040391	-7.9567	-1.5985	995.92
461.26500	-64.605	-0.0065106	-0.00044258	-8.1049	-1.6559	995.91
461.27000	-66.552	-0.0066321	-0.00043351	-8.381	-1.7104	995.89
461.27500	-68.794	-0.0060476	-0.00040301	-8.6621	-1.7652	995.86
461.28000	-71.02	-0.0064512	-0.00041797	-8.7564	-1.8305	995.82
461.28500	-68.291	-0.0067347	-0.00045109	-8.3772	-1.8983	995.76
461.29000	-65.151	-0.0067035	-0.00043729	-8.074	-1.9497	995.7
461.29500	-63.348	-0.0066112	-0.00042698	-7.8215	-2.0039	995.78
461.30000	-63.43	-0.006777	-0.00044272	-7.8669	-2.0683	995.85
461.30500	-63.807	-0.0070737	-0.00045965	-8.0097	-2.1194	995.77
461.31000	-65.872	-0.007011	-0.00046787	-8.2696	-2.1679	995.69
461.31500	-69.586	-0.0068886	-0.00045765	-8.7415	-2.2272	995.71
461.32000	-70.716	-0.0070383	-0.00047342	-8.8069	-2.2891	995.72
461.32501	-68.894	-0.0071999	-0.00047157	-8.4819	-2.3522	995.69
461.33001	-64.158	-0.0073652	-0.00047944	-7.9646	-2.413	995.66
461.33501	-61.991	-0.007687	-0.00050555	-7.6796	-2.4728	995.52
461.34001	-62.688	-0.0075126	-0.00049887	-7.7953	-2.5284	995.4
461.34501	-63.82	-0.0075356	-0.0005139	-7.9283	-2.5857	995.43
461.35001	-64.313	-0.0075124	-0.00048957	-8.0557	-2.6388	995.46
461.35501	-67.63	-0.0074181	-0.00048243	-8.4742	-2.6892	995.36
461.36001	-70.346	-0.0074776	-0.00049411	-8.6601	-2.7554	995.26
461.36501	-68.879	-0.0079575	-0.00052715	-8.4772	-2.8223	995.15
461.37001	-67.183	-0.0080033	-0.00053467	-8.2985	-2.8761	995.04
461.37501	-83.792	-0.0089765	-0.00058245	-10.406	-2.9247	995.02
461.38001	-140.6	-0.00298	-0.00020407	-17.372	-2.977	995.01
461.38501	-265.52	-0.017252	-0.0011176	-32.901	-3.0324	994.97
461.39001	-320.01	-0.06465	-0.0042949	-39.7	-3.0915	994.94
461.39501	-360.46	-0.11322	-0.0075478	-44.611	-3.1469	994.92
461.40001	-398.71	-0.15886	-0.0106	-49.271	-3.2024	994.91
461.40501	-439.84	-0.21196	-0.014163	-54.158	-3.2656	994.89
461.41001	-464.78	-0.26865	-0.018013	-57.049	-3.3302	994.87
461.41501	-478.11	-0.31984	-0.021514	-58.349	-3.3865	994.81
461.42001	-489.03	-0.3711	-0.025012	-59.427	-3.4455	994.75
461.42501	-498.91	-0.42604	-0.028765	-60.448	-3.5068	994.75
461.43001	-494.84	-0.47937	-0.03243	-59.8	-3.5667	994.74
461.43501	-499.74	-0.52357	-0.035484	-60.269	-3.6139	994.64
461.44001	-519.09	-0.57646	-0.039119	-62.401	-3.6755	994.54
461.44501	-528.84	-0.63055	-0.042899	-63.383	-3.7354	994.36
461.45001	-534.7	-0.68151	-0.046447	-63.748	-3.7921	994.18
461.45501	-548.25	-0.73081	-0.049892	-65.058	-3.8489	993.92
461.46001	-552.32	-0.78417	-0.053632	-65.263	-3.9105	993.66
461.46501	-558.62	-0.83617	-0.05732	-65.772	-3.9683	993.33
461.47001	-556.24	-0.88895	-0.061044	-65.274	-4.0269	993
461.47501	-557.3	-0.93462	-0.064293	-65.285	-4.0791	992.68
461.48001	-569.74	-0.98078	-0.067569	-66.583	-4.1322	992.35
461.48501	-587.86	-1.0332	-0.071296	-68.457	-4.1906	991.96
461.49001	-599.21	-1.0867	-0.075148	-69.486	-4.2484	991.57
461.49501	-608.73	-1.1379	-0.078858	-70.203	-4.3069	991.3
461.50001	-619.67	-1.1894	-0.082577	-71.139	-4.3673	991.02
461.50501	-616.56	-1.2451	-0.086608	-70.512	-4.4284	990.71
461.51001	-612.46	-1.2892	-0.089809	-69.838	-4.476	990.4
461.51501	-625.56	-1.3382	-0.093397	-71.142	-4.532	989.99
461.52001	-650.03	-1.3953	-0.097588	-73.626	-4.5988	989.59
461.52501	-655.27	-1.4572	-0.10215	-74.006	-4.6673	989.26
461.53001	-653.96	-1.501	-0.1054	-73.553	-4.714	988.94
461.53501	-674.16	-1.5456	-0.10867	-75.439	-4.7662	988.73
461.54001	-692.48	-1.6059	-0.11318	-77.109	-4.833	988.51
461.54501	-684.86	-1.6609	-0.11731	-75.932	-4.8947	988.1
461.55001	-677.46	-1.7065	-0.12074	-74.938	-4.9438	987.69
461.55501	-686.25	-1.7487	-0.12391	-75.668	-4.9926	987.24
461.56001	-704.89	-1.7989	-0.12768	-77.502	-5.0487	986.79
461.56501	-719.79	-1.856	-0.13205	-78.888	-5.1132	986.45
461.57001	-727.22	-1.9064	-0.13589	-79.368	-5.1704	986.1
461.57501	-744.12	-1.9575	-0.13978	-80.805	-5.228	985.73
461.58001	-751.8	-2.0118	-0.14396	-81.167	-5.2884	985.35
461.58501	-754.6	-2.0653	-0.1481	-81.097	-5.3476	984.84
461.59001	-750.89	-2.1155	-0.15197	-80.464	-5.4031	984.34
461.59501	-751.62	-2.1613	-0.15556	-80.336	-5.4541	983.92
461.60001	-774	-2.2099	-0.15933	-82.441	-5.5111	983.49
461.60501	-789.26	-2.2668	-0.16378	-83.768	-5.5737	982.96
461.61001	-801.15	-2.3205	-0.168	-84.708	-5.6334	982.42
461.61501	-812.41	-2.3744	-0.17226	-85.39	-5.6957	981.78
461.62001	-816.85	-2.4242	-0.17623	-85.412	-5.7509	981.15
461.62501	-816.09	-2.4725	-0.18007	-84.962	-5.8044	980.6
461.63001	-822.98	-2.5216	-0.184	-85.354	-5.8578	980.04
461.63501	-831.86	-2.5744	-0.18823	-85.986	-5.9173	979.51
461.64001	-840.19	-2.6262	-0.19242	-86.625	-5.9767	978.98
461.64501	-853.34	-2.6776	-0.19658	-87.644	-6.0336	978.57
461.65001	-866.55	-2.7302	-0.20087	-88.623	-6.0919	978.16
461.65501	-876.2	-2.7779	-0.20474	-89.167	-6.1449	977.72
461.66001	-894.83	-2.8285	-0.20888	-90.58	-6.2035	977.28
461.66501	-894.32	-2.8838	-0.21344	-90.043	-6.2655	976.76
461.67001	-895.33	-2.9329	-0.21751	-89.82	-6.3188	976.25
461.67501	-906.94	-2.987	-0.222	-90.621	-6.3809	975.92
461.68001	-919	-3.042	-0.2266	-91.527	-6.4413	975.6
461.68501	-926.49	-3.0953	-0.23103	-91.971	-6.5044	975.29
461.69001	-934.81	-3.1415	-0.23495	-92.389	-6.5542	974.99
461.69501	-947.85	-3.1875	-0.23884	-93.231	-6.6064	974.69
461.70001	-969.62	-3.24	-0.2433	-94.832	-6.6648	974.41
461.70501	-970.95	-3.2964	-0.24809	-94.447	-6.729	974.31
461.71001	-974.88	-3.3492	-0.25263	-94.408	-6.7885	974.21
461.71501	-972.35	-3.3986	-0.25687	-93.834	-6.844	973.92
461.72001	-980.05	-3.4452	-0.2609	-94.315	-6.8959	973.61
461.72501	-995.59	-3.4945	-0.26518	-95.469	-6.9526	973
461.73001	-1014.2	-3.5446	-0.26953	-96.858	-7.0103	972.39
461.73501	-1025.9	-3.5953	-0.27397	-97.455	-7.066	971.9
461.74001	-1049.2	-3.6457	-0.27838	-99.076	-7.1252	971.42
461.74501	-1057.4	-3.7026	-0.28342	-99.322	-7.189	971.03
461.75001	-1053	-3.7535	-0.28793	-98.403	-7.2435	970.64
461.75501	-1064.7	-3.8046	-0.2925	-99.135	-7.3018	970.25
461.76002	-1073.7	-3.8578	-0.29722	-99.644	-7.3639	969.87
461.76502	-1080.1	-3.9076	-0.30172	-99.899	-7.4188	969.56
461.77002	-1088.8	-3.9529	-0.30584	-100.22	-7.4695	969.25
461.77502	-1107.2	-3.9979	-0.30993	-101.46	-7.5194	968.99
461.78002	-1131.5	-4.049	-0.31457	-103.11	-7.5804	968.73
461.78502	-1143.9	-4.1052	-0.31968	-103.61	-7.6446	968.49
461.79002	-1136	-4.1545	-0.32425	-102.41	-7.6974	968.25
461.79502	-1150.9	-4.2035	-0.32876	-103.33	-7.7534	968.02
461.80002	-1172.2	-4.2577	-0.33381	-104.82	-7.817	967.79
461.80502	-1190.6	-4.3166	-0.33929	-106	-7.8843	967.53
461.81002	-1195.1	-4.37	-0.34431	-105.9	-7.9429	967.27
461.81502	-1201.7	-4.4127	-0.34833	-105.98	-7.989	966.92
461.82002	-1229.5	-4.46	-0.35282	-107.85	-8.0448	966.56
461.82502	-1245.2	-4.5138	-0.35793	-108.54	-8.1065	966.34
461.83002	-1251.6	-4.5673	-0.36305	-108.5	-8.1679	966.11
461.83502	-1256.7	-4.6199	-0.36808	-108.49	-8.226	965.85
461.84002	-1268.2	-4.6704	-0.37297	-109.08	-8.2841	965.58
461.84502	-1283.3	-4.7246	-0.37823	-109.91	-8.3442	965.18
461.85002	-1289.5	-4.7712	-0.3828	-109.95	-8.3972	964.78
461.85502	-1313.9	-4.815	-0.38707	-111.49	-8.4456	964.39
461.86002	-1338.3	-4.8661	-0.39209	-112.9	-8.5041	964
461.86502	-1353	-4.9174	-0.39716	-113.41	-8.5609	963.69
461.87002	-1359.7	-4.9696	-0.40237	-113.37	-8.62	963.39
461.87502	-1361	-5.0177	-0.40721	-112.93	-8.6748	963.09
461.88002	-1394.7	-5.0714	-0.41256	-115.23	-8.7385	962.8
461.88502	-1404.1	-5.1302	-0.41851	-115.49	-8.8031	962.51
461.89002	-1411.2	-5.1791	-0.42347	-115.5	-8.8567	962.22
461.89502	-1438.6	-5.2238	-0.42804	-117.18	-8.908	961.89
461.90002	-1472.2	-5.2797	-0.43377	-119.13	-8.9727	961.57
461.90502	-1475.7	-5.3314	-0.43911	-118.7	-9.0278	961.3
461.91002	-1471.4	-5.3775	-0.44384	-117.68	-9.0773	961.02
461.91502	-1484.2	-5.4227	-0.44857	-118.19	-9.1297	960.66
461.92002	-1513.4	-5.4774	-0.45431	-119.92	-9.1937	960.31
461.92502	-1525.2	-5.5326	-0.46014	-120.33	-9.2553	959.93
461.93002	-1546.6	-5.5818	-0.46537	-121.4	-9.3096	959.57
461.93502	-1576.3	-5.6326	-0.47075	-123.02	-9.3683	959.29
461.94002	-1599.3	-5.6855	-0.47641	-124.05	-9.4282	959.02
461.94502	-1616.6	-5.7381	-0.48206	-124.52	-9.4884	958.76
461.95002	-1606.6	-5.7851	-0.48717	-123.05	-9.5382	958.5
461.95502	-1633.6	-5.8318	-0.49223	-124.51	-9.593	958.19
461.96002	-1661.4	-5.8861	-0.4982	-125.98	-9.6524	957.89
461.96502	-1674.2	-5.9438	-0.5045	-126.32	-9.7187	957.56
461.97002	-1692.4	-5.9921	-0.50987	-127.04	-9.7713	957.25
461.97502	-1713.2	-6.0383	-0.51506	-127.9	-9.8237	957.04
461.98002	-1757.4	-6.0867	-0.52045	-130.41	-9.8798	956.83
461.98502	-1777.3	-6.1418	-0.52663	-130.96	-9.9406	956.63
461.99002	-1779.6	-6.1907	-0.53214	-130.33	-9.9969	956.43
461.99502	-1798.7	-6.24	-0.53777	-131.01	-10.053	956.05
462.00002	-1829.7	-6.2949	-0.54409	-132.52	-10.116	955.66
462.00502	-1840.8	-6.3483	-0.55025	-132.67	-10.176	955.31
462.01002	-1868	-6.3957	-0.55571	-133.91	-10.23	954.95
462.01502	-1906.3	-6.446	-0.56159	-135.87	-10.288	954.65
462.02002	-1936.9	-6.4963	-0.56744	-137.14	-10.345	954.34
462.02502	-1954	-6.5455	-0.5733	-137.42	-10.4	954.13
462.03002	-1970.7	-6.594	-0.57904	-137.72	-10.455	953.92
462.03502	-1989.5	-6.6418	-0.58475	-138.25	-10.511	953.6
462.04002	-2024.5	-6.6961	-0.59125	-139.88	-10.574	953.27
462.04502	-2035.8	-6.7459	-0.59727	-139.94	-10.628	952.83
462.05002	-2075.4	-6.7933	-0.60303	-141.9	-10.683	952.41
462.05502	-2121.1	-6.8437	-0.60918	-144.14	-10.742	952.22
462.06002	-2163.4	-6.8962	-0.61563	-146.02	-10.804	952.03
462.06502	-2180.1	-6.944	-0.62155	-146.11	-10.857	951.93
462.07002	-2217.8	-6.9925	-0.6276	-147.64	-10.912	951.82
462.07502	-2241.1	-7.0448	-0.63413	-148.24	-10.972	951.55
462.08002	-2275.2	-7.0962	-0.64066	-149.59	-11.031	951.28
462.08502	-2290.6	-7.1471	-0.6471	-149.8	-11.091	951.05
462.09002	-2317.9	-7.1898	-0.65253	-150.85	-11.14	950.83
462.09502	-2382.7	-7.2367	-0.65853	-154.12	-11.195	950.65
462.10002	-2440.6	-7.289	-0.66533	-156.72	-11.257	950.47
462.10502	-2476.5	-7.3394	-0.67191	-157.84	-11.316	950.25
462.11002	-2516	-7.389	-0.6784	-159.22	-11.373	950.02
462.11502	-2541.3	-7.4393	-0.68498	-159.75	-11.43	949.79
462.12002	-2574.1	-7.4872	-0.69136	-160.86	-11.485	949.57
462.12502	-2624.5	-7.5381	-0.69816	-163.05	-11.546	949.38
462.13002	-2691	-7.5908	-0.70523	-166.09	-11.611	949.19
462.13502	-2738	-7.6421	-0.7122	-167.85	-11.668	949.09
462.14002	-2801.4	-7.6902	-0.71875	-170.55	-11.726	948.99
462.14502	-2833.6	-7.7379	-0.7253	-171.26	-11.779	948.88
462.15002	-2794.3	-7.7764	-0.73064	-167.94	-11.819	948.76
462.15160	-2785.7	-7.7801	-0.73116	-167.34	-11.823	948.7
462.65160	-1357.8	-7.9053	-0.74871	-80.277	-11.893	7331.1
463.15160	-971.43	-7.9187	-0.75058	-57.269	-11.888	7938.8
463.65160	-817.17	-7.9184	-0.75054	-48.174	-11.88	7997.4
464.15160	-703.24	-7.916	-0.75021	-41.47	-11.873	7999.9
464.65160	-622.8	-7.9144	-0.74999	-36.732	-11.868	7859.2
465.15160	-537.01	-7.9119	-0.74963	-31.685	-11.861	7993.9
465.65160	-470.32	-7.9108	-0.74947	-27.758	-11.855	7999.7
466.15160	-405.03	-7.9092	-0.74925	-23.908	-11.847	8000
466.65160	-350.62	-7.9086	-0.74916	-20.697	-11.841	8000
467.15160	-296.26	-7.9071	-0.74895	-17.494	-11.835	8000
467.65160	-243.9	-7.9054	-0.74871	-14.403	-11.828	8000
468.15160	-190.82	-7.9025	-0.7483	-11.274	-11.818	8000
468.65160	-155.27	-7.9014	-0.74814	-9.1738	-11.812	8000
469.15160	-122.49	-7.8999	-0.74793	-7.2398	-11.806	8000
469.65160	-94.271	-7.8991	-0.74782	-5.5726	-11.798	7946.7
470.15160	-80.286	-7.9012	-0.74812	-4.7434	-11.791	7997.7
470.65160	-68.603	-7.9056	-0.74874	-4.0539	-11.784	7999.9
471.15160	-59.768	-7.9102	-0.74939	-3.5282	-11.776	8000
471.65160	-53.238	-7.9134	-0.74984	-3.1412	-11.77	8000
472.15160	-48.7	-7.9155	-0.75014	-2.8719	-11.762	8000
472.65160	-46.013	-7.9167	-0.75031	-2.7144	-11.756	8000
473.15160	-44.087	-7.9179	-0.75047	-2.5989	-11.749	8000
473.65160	-42.902	-7.9188	-0.75061	-2.5287	-11.741	8000
474.15160	-42.105	-7.9196	-0.75072	-2.483	-11.734	8000
474.65160	-41.836	-7.9203	-0.75082	-2.4651	-11.727	8000
475.15160	-41.495	-7.9209	-0.7509	-2.4474	-11.717	8000
475.65160	-41.696	-7.9214	-0.75097	-2.4571	-11.712	8000
476.15160	-41.996	-7.9218	-0.75103	-2.4763	-11.704	8000
476.65160	-42.042	-7.9222	-0.75109	-2.4796	-11.697	8000
477.15160	-42.376	-7.9226	-0.75114	-2.4972	-11.69	8000
477.65160	-42.421	-7.923	-0.7512	-2.4995	-11.683	8000
478.15160	-42.555	-7.9234	-0.75126	-2.5054	-11.675	8000
478.65160	-42.792	-7.9238	-0.75132	-2.5218	-11.668	8000
479.15160	-42.796	-7.9242	-0.75138	-2.5219	-11.661	8000
479.65160	-42.993	-7.9246	-0.75142	-2.5319	-11.654	8000
480.15160	-43.094	-7.9249	-0.75147	-2.5382	-11.647	8000
480.65160	-43.262	-7.9253	-0.75153	-2.5475	-11.639	8000
481.15160	-43.415	-7.9256	-0.75158	-2.5595	-11.633	8000
481.65160	-43.664	-7.926	-0.75162	-2.5722	-11.626	8000
482.15160	-43.97	-7.9264	-0.75168	-2.5904	-11.618	8000
482.65160	-44.575	-7.9265	-0.75169	-2.6265	-11.612	8000
483.15160	-44.714	-7.9267	-0.75173	-2.6313	-11.604	8000
483.65160	-44.76	-7.927	-0.75177	-2.6371	-11.598	8000
484.15160	-44.861	-7.9274	-0.75181	-2.6386	-11.591	8000
484.65160	-45.072	-7.9276	-0.75185	-2.6554	-11.584	8000
485.15160	-45.332	-7.9278	-0.75188	-2.6704	-11.578	8000
485.65160	-45.544	-7.928	-0.7519	-2.6797	-11.568	8000
486.15160	-45.585	-7.9283	-0.75194	-2.6846	-11.561	8000
486.65160	-45.695	-7.9285	-0.75197	-2.688	-11.555	8000
487.15160	-45.701	-7.9286	-0.75199	-2.6914	-11.546	8000
487.65160	-45.674	-7.9289	-0.75204	-2.688	-11.539	8000
488.15160	-45.876	-7.9292	-0.75207	-2.7007	-11.534	8000
488.65160	-45.886	-7.9294	-0.75209	-2.7013	-11.527	8000
489.15160	-46.125	-7.9296	-0.75213	-2.7137	-11.519	8000
489.65160	-46.061	-7.9297	-0.75215	-2.7118	-11.511	7869.9
490.15160	-46.148	-7.93	-0.75218	-2.7159	-11.503	7954.9
490.65160	-46.397	-7.9302	-0.75221	-2.7318	-11.496	7998
491.15160	-46.161	-7.9304	-0.75224	-2.7172	-11.49	6795.9
491.65160	-46.37	-7.9306	-0.75226	-2.7263	-11.48	7947.9
492.15160	-46.382	-7.9309	-0.7523	-2.7318	-11.474	7795.1
492.65160	-46.574	-7.9311	-0.75233	-2.739	-11.467	7991.1
493.15160	-46.461	-7.9311	-0.75234	-2.7352	-11.46	7999.6
493.65160	-46.447	-7.9313	-0.75236	-2.7326	-11.453	8000
494.15160	-46.641	-7.9315	-0.75239	-2.7459	-11.446	8000
494.65160	-46.67	-7.9316	-0.75241	-2.7461	-11.438	7914.8
495.15160	-46.706	-7.9318	-0.75243	-2.7459	-11.432	7562.3
495.65160	-46.482	-7.9317	-0.75243	-2.7366	-11.424	7763.3
496.15160	-46.691	-7.9319	-0.75246	-2.748	-11.416	7989.8
496.65160	-46.788	-7.932	-0.75247	-2.7556	-11.409	7999.6
497.15160	-46.698	-7.9322	-0.7525	-2.7478	-11.402	8000
497.65160	-46.895	-7.9323	-0.75251	-2.7593	-11.396	7530.2
498.15160	-46.34	-7.9323	-0.75251	-2.7269	-11.389	7979.7
498.65160	-46.488	-7.9325	-0.75253	-2.7334	-11.381	7999.1
499.15160	-46.689	-7.9325	-0.75254	-2.7473	-11.375	8000
499.65160	-46.762	-7.9326	-0.75256	-2.7481	-11.367	8000
500.15160	-46.945	-7.9328	-0.75259	-2.762	-11.36	8000
500.65160	-46.495	-7.9329	-0.75261	-2.737	-11.353	8000
501.15160	-46.575	-7.9329	-0.7526	-2.7409	-11.345	8000
501.65160	-46.488	-7.9331	-0.75263	-2.7363	-11.339	8000
502.15160	-46.656	-7.9332	-0.75264	-2.7429	-11.332	8000
502.65160	-46.8	-7.9333	-0.75266	-2.7547	-11.324	8000
503.15160	-46.823	-7.9335	-0.75269	-2.7511	-11.318	8000
503.65160	-46.691	-7.9334	-0.75268	-2.7461	-11.31	8000
504.15160	-46.411	-7.9335	-0.75268	-2.7315	-11.303	8000
504.65160	-46.698	-7.9335	-0.75269	-2.7472	-11.296	8000
505.15160	-46.748	-7.9337	-0.75272	-2.7514	-11.29	8000
505.65160	-46.834	-7.9339	-0.75274	-2.7552	-11.281	8000
506.15160	-46.936	-7.934	-0.75276	-2.764	-11.274	8000
506.65160	-46.734	-7.9341	-0.75277	-2.7492	-11.267	8000
507.15160	-46.453	-7.934	-0.75276	-2.7301	-11.26	8000
507.65160	-46.408	-7.934	-0.75275	-2.7302	-11.253	8000
508.15160	-46.679	-7.9342	-0.75278	-2.7438	-11.246	8000
508.65160	-46.754	-7.9344	-0.75281	-2.7518	-11.238	8000
509.15160	-46.773	-7.9345	-0.75282	-2.7494	-11.23	8000
509.65160	-46.899	-7.9346	-0.75284	-2.759	-11.224	8000
510.15160	-46.216	-7.9345	-0.75283	-2.7212	-11.217	8000
510.65160	-46.418	-7.9345	-0.75282	-2.729	-11.208	6640.7
511.15160	-46.443	-7.9345	-0.75282	-2.7337	-11.202	7061.4
511.65160	-46.481	-7.9348	-0.75287	-2.7335	-11.195	7959.4
512.15160	-46.669	-7.9349	-0.75287	-2.7425	-11.188	7244.4
512.65160	-46.605	-7.935	-0.7529	-2.741	-11.181	7967.3
513.15160	-46.772	-7.935	-0.7529	-2.752	-11.173	7815.7
513.65160	-46.554	-7.9352	-0.75292	-2.7382	-11.167	7992
514.15160	-46.234	-7.9352	-0.75291	-2.717	-11.159	6566.9
514.65160	-46.318	-7.9352	-0.75292	-2.7256	-11.151	7897.8
515.15160	-46.352	-7.9353	-0.75294	-2.7227	-11.145	7912.5
515.65160	-46.54	-7.9354	-0.75295	-2.7388	-11.138	7996.2
516.15160	-46.366	-7.9356	-0.75297	-2.7264	-11.131	7999.8
516.65160	-46.695	-7.9357	-0.75299	-2.7432	-11.124	8000
517.15160	-46.433	-7.9358	-0.753	-2.7319	-11.117	7189
517.65160	-46.577	-7.9359	-0.75301	-2.7381	-11.11	7964.9
518.15160	-45.982	-7.9357	-0.753	-2.7058	-11.102	7998.5
518.65160	-45.848	-7.9358	-0.753	-2.6954	-11.094	7999.9
519.15160	-46.211	-7.9357	-0.75299	-2.7161	-11.088	8000
519.65160	-46.081	-7.9358	-0.75301	-2.709	-11.082	8000
520.15160	-46.32	-7.9359	-0.75302	-2.7227	-11.074	8000
520.65160	-46.193	-7.9361	-0.75304	-2.7189	-11.066	8000
521.15160	-46.334	-7.9361	-0.75305	-2.7249	-11.06	8000
521.65160	-46.306	-7.9361	-0.75305	-2.7243	-11.052	8000
522.15160	-46.208	-7.9361	-0.75305	-2.7137	-11.046	8000
522.65160	-46.235	-7.9362	-0.75307	-2.718	-11.037	8000
523.15160	-45.505	-7.9361	-0.75305	-2.6775	-11.031	8000
523.65160	-45.737	-7.9362	-0.75306	-2.6864	-11.023	8000
524.15160	-45.772	-7.9362	-0.75306	-2.6938	-11.015	8000
524.65160	-45.804	-7.9363	-0.75308	-2.6911	-11.009	8000
525.15160	-45.93	-7.9364	-0.75309	-2.7025	-11.003	6456.2
525.65160	-45.749	-7.9365	-0.75311	-2.6924	-10.996	7933.2
526.15160	-45.988	-7.9366	-0.75313	-2.7057	-10.987	7997.1
526.65160	-45.824	-7.9366	-0.75313	-2.6979	-10.982	7999.9
527.15160	-45.968	-7.9367	-0.75314	-2.7002	-10.973	8000
527.65160	-45.865	-7.9368	-0.75315	-2.6987	-10.966	8000
528.15160	-45.767	-7.9369	-0.75317	-2.691	-10.958	8000
528.65160	-45.884	-7.9369	-0.75316	-2.6973	-10.952	8000
529.15160	-45.61	-7.937	-0.75318	-2.682	-10.945	8000
529.65160	-45.689	-7.9371	-0.7532	-2.6851	-10.937	7875.7
530.15160	-45.01	-7.9372	-0.7532	-2.65	-10.93	7971.4
530.65160	-45.044	-7.9371	-0.7532	-2.6451	-10.923	7998.8
531.15160	-45.177	-7.9372	-0.75321	-2.6586	-10.917	7999.9
531.65160	-45.147	-7.9373	-0.75322	-2.655	-10.909	8000
532.15160	-45.317	-7.9373	-0.75322	-2.6627	-10.902	8000
532.65160	-45.052	-7.9373	-0.75322	-2.65	-10.894	8000
533.15160	-45.213	-7.9373	-0.75323	-2.6551	-10.887	8000
533.65160	-45.093	-7.9373	-0.75323	-2.652	-10.88	8000
534.15160	-44.934	-7.9375	-0.75324	-2.6421	-10.873	8000
534.65160	-45.037	-7.9375	-0.75324	-2.6463	-10.865	8000
535.15160	-44.989	-7.9376	-0.75326	-2.6458	-10.859	8000
535.65160	-44.986	-7.9377	-0.75327	-2.6429	-10.852	8000
536.15160	-44.925	-7.9377	-0.75327	-2.6421	-10.845	8000
536.65160	-44.788	-7.9377	-0.75327	-2.6343	-10.837	8000
537.15160	-44.877	-7.9377	-0.75327	-2.637	-10.83	7864.3
537.65160	-44.604	-7.9377	-0.75328	-2.6221	-10.822	7974.4
538.15160	-44.66	-7.9377	-0.75328	-2.626	-10.815	7998.9
538.65160	-44.527	-7.9377	-0.75328	-2.6198	-10.809	8000
539.15160	-44.53	-7.9378	-0.75329	-2.6138	-10.802	8000
539.65160	-44.418	-7.9378	-0.75328	-2.6115	-10.794	8000
540.15160	-44.285	-7.9379	-0.75329	-2.6016	-10.787	8000
540.65160	-44.494	-7.9378	-0.75329	-2.6155	-10.78	8000
541.15160	-44.096	-7.9379	-0.7533	-2.5932	-10.772	8000
541.65160	-44.087	-7.9379	-0.7533	-2.5894	-10.765	8000
542.15160	-44.11	-7.9379	-0.7533	-2.5948	-10.759	7957.9
542.65160	-43.849	-7.9379	-0.7533	-2.5782	-10.751	7969.9
543.15160	-43.918	-7.9379	-0.7533	-2.5812	-10.743	7998.7
543.65160	-43.696	-7.9379	-0.7533	-2.5704	-10.736	7999.9
544.15160	-43.794	-7.9379	-0.7533	-2.5725	-10.73	8000
544.65160	-43.622	-7.9378	-0.75329	-2.5668	-10.723	8000
545.15160	-43.518	-7.9379	-0.75329	-2.5567	-10.715	8000
545.65160	-43.468	-7.9379	-0.75331	-2.5588	-10.707	8000
546.15160	-43.337	-7.9379	-0.7533	-2.5479	-10.701	8000
546.65160	-43.329	-7.9378	-0.75329	-2.5456	-10.693	8000
547.15160	-43.046	-7.9378	-0.75329	-2.5317	-10.687	7968.1
547.65160	-43.012	-7.9377	-0.75328	-2.5265	-10.68	7832.9
548.15160	-42.873	-7.9377	-0.75327	-2.522	-10.673	7965.9
548.65160	-42.578	-7.9377	-0.75327	-2.5029	-10.664	7998.5
549.15160	-42.701	-7.9378	-0.75328	-2.5107	-10.658	7999.9
549.65160	-42.371	-7.9377	-0.75328	-2.4928	-10.65	7862.5
550.15160	-42.49	-7.9377	-0.75328	-2.4972	-10.644	7960.1
550.65160	-42.221	-7.9376	-0.75327	-2.4839	-10.636	7998.3
551.15160	-42.075	-7.9376	-0.75327	-2.4715	-10.628	7999.9
551.65160	-42.06	-7.9375	-0.75326	-2.4739	-10.62	7759.3
552.15160	-41.73	-7.9376	-0.75326	-2.4536	-10.614	6615.4
552.65160	-41.783	-7.9375	-0.75326	-2.4564	-10.607	7679.7
553.15160	-41.596	-7.9375	-0.75325	-2.4475	-10.599	7986.1
553.65160	-41.449	-7.9373	-0.75322	-2.4346	-10.592	7704.3
554.15160	-41.362	-7.9373	-0.75322	-2.4344	-10.586	7987.2
554.65160	-41.082	-7.9372	-0.75321	-2.4145	-10.578	7999.4
555.15160	-41.053	-7.9372	-0.75321	-2.4162	-10.571	8000
555.65160	-40.764	-7.9372	-0.75321	-2.3985	-10.563	8000
556.15160	-40.839	-7.9372	-0.75321	-2.3987	-10.556	8000
556.65160	-40.593	-7.9371	-0.75319	-2.3867	-10.549	8000
557.15160	-40.367	-7.9371	-0.7532	-2.3731	-10.543	8000
557.65160	-40.432	-7.937	-0.75318	-2.3769	-10.533	8000
558.15160	-40.079	-7.937	-0.75317	-2.3582	-10.527	8000
558.65160	-40.064	-7.9369	-0.75317	-2.3569	-10.52	6000.3
559.15160	-39.8	-7.9369	-0.75317	-2.3421	-10.512	7913.4
559.65160	-39.699	-7.9368	-0.75315	-2.3337	-10.506	7996.3
560.15160	-39.449	-7.9368	-0.75314	-2.3217	-10.498	7999.8
560.65160	-39.356	-7.9368	-0.75314	-2.3121	-10.492	8000
561.15160	-39.303	-7.9367	-0.75313	-2.3101	-10.483	7048
561.65160	-39.023	-7.9367	-0.75313	-2.2939	-10.477	7958.8
562.15160	-39.037	-7.9366	-0.75311	-2.292	-10.47	7998.2
562.65160	-38.786	-7.9365	-0.75311	-2.2826	-10.461	7586.7
563.15160	-38.66	-7.9365	-0.75311	-2.2704	-10.454	7945.6
563.65160	-38.58	-7.9365	-0.75311	-2.2704	-10.447	7997.6
564.15160	-38.377	-7.9365	-0.75311	-2.256	-10.44	7999.9
564.65160	-38.297	-7.9364	-0.75309	-2.2507	-10.433	8000
565.15160	-37.925	-7.9363	-0.75308	-2.2312	-10.426	1656.6
565.65160	-37.948	-7.9363	-0.75308	-2.2292	-10.418	7725.4
566.15160	-37.696	-7.9363	-0.75306	-2.2187	-10.412	7988.1
566.65160	-37.56	-7.9363	-0.75307	-2.2068	-10.403	7999.5
567.15160	-37.55	-7.9363	-0.75307	-2.2094	-10.396	8000
567.65160	-37.212	-7.9363	-0.75307	-2.189	-10.389	8000
568.15160	-37.084	-7.9362	-0.75306	-2.181	-10.381	8000
568.65160	-36.926	-7.9362	-0.75306	-2.1716	-10.374	8000
569.15160	-36.882	-7.9362	-0.75305	-2.1676	-10.368	8000
569.65160	-36.705	-7.9361	-0.75305	-2.1607	-10.36	8000
570.15160	-36.516	-7.9359	-0.75303	-2.1453	-10.353	8000
570.65160	-36.526	-7.936	-0.75304	-2.1477	-10.346	8000
571.15160	-36.174	-7.9361	-0.75304	-2.1286	-10.339	7876.1
571.65160	-36.319	-7.936	-0.75304	-2.1357	-10.333	7994.6
572.15160	-35.91	-7.936	-0.75303	-2.1126	-10.325	5734.6
572.65160	-35.936	-7.9359	-0.75302	-2.1127	-10.318	7727.6
573.15160	-35.836	-7.9358	-0.75301	-2.1089	-10.31	7931.5
573.65160	-35.488	-7.9359	-0.75302	-2.0883	-10.303	7997
574.15160	-35.489	-7.9359	-0.75303	-2.0876	-10.298	7999.9
574.65160	-35.201	-7.9359	-0.75302	-2.0714	-10.291	8000
575.15160	-35.177	-7.9358	-0.75301	-2.0675	-10.281	8000
575.65160	-34.924	-7.9358	-0.75301	-2.0572	-10.275	8000
576.15160	-34.905	-7.9358	-0.753	-2.0514	-10.267	6704.4
576.65160	-34.968	-7.9358	-0.753	-2.056	-10.26	7943.9
577.15160	-34.568	-7.9357	-0.75299	-2.0341	-10.253	7874.7
577.65160	-34.568	-7.9356	-0.75299	-2.029	-10.245	7994.6
578.15160	-34.317	-7.9356	-0.75299	-2.0198	-10.238	7999.8
578.65160	-34.394	-7.9356	-0.75298	-2.0194	-10.232	8000
579.15160	-34.016	-7.9355	-0.75296	-2.0019	-10.224	7733.3
579.65160	-33.888	-7.9355	-0.75298	-1.9933	-10.218	7946.7
580.15160	-33.86	-7.9355	-0.75298	-1.9923	-10.211	7997.7
580.65160	-33.585	-7.9355	-0.75297	-1.9737	-10.203	7999.9
581.15160	-33.712	-7.9354	-0.75296	-1.9808	-10.197	8000
581.65160	-33.354	-7.9354	-0.75295	-1.9655	-10.19	8000
582.15160	-33.286	-7.9354	-0.75295	-1.9567	-10.182	8000
582.65160	-33.23	-7.9354	-0.75296	-1.9568	-10.174	7973.2
583.15160	-32.904	-7.9353	-0.75294	-1.9338	-10.167	7831.2
583.65160	-32.978	-7.9354	-0.75296	-1.9382	-10.16	7992.7
584.15160	-32.702	-7.9353	-0.75293	-1.9239	-10.152	7512.8
584.65160	-32.614	-7.9353	-0.75293	-1.9171	-10.146	7978.9
585.15160	-32.488	-7.9352	-0.75293	-1.9118	-10.14	7999.1
585.65160	-32.345	-7.9353	-0.75294	-1.8994	-10.131	8000
586.15160	-32.271	-7.9352	-0.75292	-1.8996	-10.123	7542.1
586.65160	-32	-7.9352	-0.75292	-1.8843	-10.116	7980.2
587.15160	-32.065	-7.9352	-0.75292	-1.8843	-10.109	7999.1
587.65160	-31.826	-7.9352	-0.75292	-1.872	-10.102	7892.4
588.15160	-31.655	-7.935	-0.7529	-1.8624	-10.095	7995.3
588.65160	-31.606	-7.935	-0.75288	-1.8596	-10.087	7999.8
589.15160	-31.345	-7.9349	-0.75288	-1.8425	-10.08	8000
589.65160	-31.523	-7.9349	-0.75288	-1.8519	-10.073	8000
590.15160	-31.147	-7.9349	-0.75287	-1.8322	-10.065	8000
590.65160	-31.022	-7.9349	-0.75287	-1.8213	-10.058	8000
591.15160	-30.905	-7.9349	-0.75288	-1.8206	-10.049	8000
591.65160	-30.685	-7.9348	-0.75287	-1.8047	-10.043	8000
592.15160	-30.702	-7.9349	-0.75287	-1.8075	-10.036	8000
592.65160	-30.521	-7.9349	-0.75287	-1.7943	-10.03	8000
593.15160	-30.497	-7.9349	-0.75288	-1.7924	-10.022	8000
593.65160	-30.278	-7.935	-0.75289	-1.7822	-10.015	8000
594.15160	-30.412	-7.9349	-0.75288	-1.7883	-10.01	8000
594.65160	-30.502	-7.9351	-0.7529	-1.7948	-10.002	8000
595.15160	-30.41	-7.9352	-0.75292	-1.7865	-9.9943	8000
595.65160	-30.549	-7.9353	-0.75293	-1.7949	-9.9865	8000
596.15160	-30.322	-7.9354	-0.75294	-1.785	-9.979	8000
596.65160	-30.311	-7.9355	-0.75296	-1.7802	-9.9712	7913.3
597.15160	-30.251	-7.9355	-0.75297	-1.7811	-9.9641	7996.2
597.65160	-30.237	-7.9356	-0.75297	-1.7783	-9.9564	7999.8
598.15160	-30.082	-7.9356	-0.75297	-1.7712	-9.9484	7801.5
598.65160	-29.828	-7.9357	-0.753	-1.7548	-9.943	7991.4
599.15160	-29.921	-7.9358	-0.75301	-1.7599	-9.9363	7999.6
599.65160	-29.72	-7.9358	-0.753	-1.7504	-9.9289	8000
600.15160	-29.745	-7.9358	-0.75301	-1.7485	-9.9214	8000
600.65160	-29.72	-7.9358	-0.75301	-1.7482	-9.9131	8000
601.15160	-29.544	-7.9359	-0.75302	-1.7364	-9.9062	8000
601.65160	-29.47	-7.9359	-0.75301	-1.7323	-9.8993	8000
602.15160	-29.16	-7.936	-0.75304	-1.7168	-9.8924	8000
602.65160	-29.272	-7.936	-0.75304	-1.719	-9.8851	8000
603.15160	-29.218	-7.9361	-0.75305	-1.7201	-9.8785	8000
603.65160	-29.005	-7.936	-0.75304	-1.7043	-9.8699	8000
604.15160	-29.026	-7.9362	-0.75306	-1.7078	-9.8652	8000
604.65160	-28.733	-7.9362	-0.75307	-1.6897	-9.8567	8000
605.15160	-28.876	-7.9362	-0.75307	-1.6981	-9.8486	8000
605.65160	-28.697	-7.9362	-0.75307	-1.6887	-9.8434	7357.2
606.15160	-28.619	-7.9363	-0.75308	-1.68	-9.8352	7972.2
606.65160	-28.453	-7.9362	-0.75308	-1.6763	-9.8266	7998.8
607.15160	-28.278	-7.9362	-0.75307	-1.6635	-9.8206	7999.9
607.65160	-28.454	-7.9363	-0.75307	-1.6711	-9.8145	8000
608.15160	-28.117	-7.9362	-0.75306	-1.6538	-9.8063	8000
608.65160	-28.077	-7.9363	-0.75308	-1.6499	-9.7991	8000
609.15160	-28.03	-7.9363	-0.75309	-1.6514	-9.7918	8000
609.65160	-27.747	-7.9364	-0.75309	-1.6325	-9.7846	8000
610.15160	-27.873	-7.9364	-0.75309	-1.6387	-9.7786	8000
610.65160	-27.489	-7.9364	-0.75309	-1.6178	-9.7702	8000
611.15160	-27.625	-7.9364	-0.75308	-1.6227	-9.764	8000
611.65160	-27.434	-7.9365	-0.7531	-1.6155	-9.756	8000
612.15160	-27.247	-7.9365	-0.7531	-1.5997	-9.7495	7861.3
612.65160	-27.357	-7.9365	-0.7531	-1.6094	-9.741	7994
613.15160	-27.009	-7.9364	-0.7531	-1.5885	-9.7328	7999.7
613.65160	-27.108	-7.9365	-0.75309	-1.593	-9.7261	8000
614.15160	-26.983	-7.9364	-0.75309	-1.5867	-9.7208	8000
614.65160	-26.801	-7.9365	-0.7531	-1.5737	-9.7134	8000
615.15160	-26.794	-7.9364	-0.75309	-1.5757	-9.7052	8000
615.65160	-26.47	-7.9365	-0.7531	-1.5565	-9.6973	8000
616.15160	-26.609	-7.9365	-0.75311	-1.5617	-9.6909	8000
616.65160	-26.471	-7.9365	-0.7531	-1.5584	-9.683	8000
617.15160	-26.418	-7.9365	-0.7531	-1.5527	-9.6757	8000
617.65160	-26.281	-7.9366	-0.75312	-1.5497	-9.6691	8000
618.15160	-26.061	-7.9366	-0.75312	-1.5321	-9.6615	8000
618.65160	-26.086	-7.9366	-0.75312	-1.534	-9.6553	8000
619.15160	-25.888	-7.9366	-0.75312	-1.5238	-9.6486	8000
619.65160	-25.817	-7.9367	-0.75312	-1.5164	-9.642	7798.6
620.15160	-25.678	-7.9367	-0.75313	-1.5105	-9.633	7778
620.65160	-25.407	-7.9367	-0.75312	-1.4946	-9.6266	7990.4
621.15160	-25.531	-7.9367	-0.75313	-1.5004	-9.6191	7999.6
621.65160	-25.208	-7.9367	-0.75313	-1.4824	-9.612	8000
622.15160	-25.396	-7.9367	-0.75313	-1.4924	-9.6054	8000
