Time(sec)	Force(kgf)	LGauge(mm)	Strain	Stress(MPa)	Stroke(mm)	TC1(C)
0.00000	-203.11	7.2911e-05	3.1132e-06	-25.391	-0.013758	23.509
1.00000	-203.51	-0.00012625	-7.9736e-06	-25.413	-0.012951	23.338
2.00000	-203.74	-0.00020207	-1.1207e-05	-25.431	-0.013064	23.439
3.00000	-203.71	-0.00024879	-1.5103e-05	-25.432	-0.013187	23.455
4.00000	-203.95	-0.00025994	-1.6957e-05	-25.472	-0.014503	23.329
5.00000	-204.5	-0.00027663	-1.7798e-05	-25.535	-0.014828	23.33
6.00000	-211.25	-0.00053059	-3.4366e-05	-26.368	-0.015649	23.661
7.00000	-217.03	0.00052788	3.6123e-05	-27.101	-0.015123	26.783
8.00000	-221.13	0.0021852	0.00014421	-27.623	-0.015116	34.732
9.00000	-222.48	0.0022412	0.00014997	-27.788	-0.015208	44.005
10.00000	-219.52	0.0021639	0.00014369	-27.408	-0.014282	50.479
11.00000	-221.82	0.0022225	0.00014591	-27.701	-0.014029	53.721
12.00000	-224.55	0.0037755	0.00025042	-28.059	-0.013371	56.379
13.00000	-225.57	0.0069361	0.00045959	-28.186	-0.012771	60.876
14.00000	-226.18	0.0087652	0.00058364	-28.251	-0.012944	67.724
15.00000	-226.92	0.0091331	0.00060629	-28.348	-0.012655	74.513
15.55380	-228.03	0.0091292	0.00060872	-28.491	-0.012575	77.448
16.55380	-227.54	0.01001	0.00066614	-28.424	-0.012265	81.38
17.55380	-227.39	0.012393	0.00082421	-28.421	-0.011647	84.853
18.55380	-227.7	0.015342	0.0010244	-28.469	-0.010911	89.469
19.55380	-228.1	0.017715	0.0011821	-28.515	-0.010365	95.518
20.17600	-228.31	0.018475	0.0012326	-28.543	-0.0097596	99.507
21.17600	-228.96	0.019243	0.0012822	-28.633	-0.0084349	104.95
22.17600	-229.25	0.02071	0.0013809	-28.671	-0.0076194	109.17
23.17600	-229.32	0.023275	0.0015546	-28.671	-0.0065683	113.26
24.17600	-229.34	0.025949	0.0017319	-28.683	-0.0062007	118.28
25.17600	-229.65	0.027934	0.0018624	-28.738	-0.0063985	123.92
26.17600	-230.3	0.029519	0.0019683	-28.811	-0.0066037	129.5
27.17600	-230.48	0.031121	0.0020746	-28.833	-0.0076252	134.29
28.17600	-230.37	0.033323	0.0022208	-28.827	-0.008518	138.69
29.17600	-230.44	0.03594	0.0023922	-28.849	-0.008904	143.59
30.17600	-216.95	0.040428	0.0026904	-27.166	-0.010056	148.91
31.17600	-116.54	0.063996	0.0042574	-14.606	-0.010648	154.26
32.17600	-119.45	0.065137	0.0043339	-14.975	-0.011525	159.65
33.17600	-125.12	0.065279	0.0043438	-15.691	-0.011991	164.69
34.17600	-130.32	0.065785	0.0043752	-16.348	-0.01264	169.15
35.17600	-134.32	0.067095	0.0044612	-16.846	-0.013421	173.46
36.17600	-137.09	0.069067	0.0045932	-17.195	-0.013577	178.23
37.17600	-137.93	0.071345	0.0047422	-17.312	-0.013808	183.59
38.17600	-138.74	0.073198	0.004865	-17.418	-0.014654	189.1
39.17600	-139.4	0.07489	0.0049786	-17.497	-0.014945	194.26
40.17600	-139.47	0.076882	0.0051098	-17.502	-0.014857	198.85
41.17600	-139.39	0.079514	0.0052868	-17.497	-0.015597	203.67
42.17600	-139.54	0.082285	0.0054694	-17.523	-0.015438	208.52
43.17600	-139.72	0.084982	0.0056478	-17.549	-0.016089	213.95
44.17600	-139.94	0.08724	0.0058008	-17.574	-0.016217	219.25
45.17600	-139.98	0.089307	0.0059394	-17.581	-0.016763	224.43
46.17600	-140.1	0.091619	0.0060906	-17.604	-0.016954	229.12
47.17600	-140.2	0.094162	0.0062587	-17.621	-0.016963	233.76
48.17600	-140.2	0.097295	0.0064665	-17.62	-0.01749	238.54
49.17600	-140.24	0.10029	0.0066659	-17.622	-0.017518	243.81
50.17600	-140.27	0.10267	0.0068251	-17.634	-0.017647	249.23
51.17600	-140.61	0.10471	0.0069593	-17.684	-0.017477	254.42
52.17600	-140.87	0.10696	0.0071074	-17.719	-0.017852	259.03
53.17600	-140.77	0.10962	0.0072846	-17.704	-0.018176	263.46
54.17600	-140.69	0.1128	0.0074926	-17.695	-0.018562	268.32
55.17600	-140.63	0.11602	0.0077052	-17.696	-0.018565	273.53
56.17600	-140.91	0.11874	0.0078856	-17.738	-0.019047	279.09
56.47510	-140.83	0.11948	0.0079343	-17.726	-0.019102	280.66
57.47510	-141.08	0.12201	0.0081014	-17.762	-0.018993	285.74
58.47510	-141.27	0.12462	0.0082745	-17.786	-0.019441	290.57
59.31650	-141.19	0.12701	0.0084322	-17.777	-0.019417	294.59
60.31650	-141.14	0.13018	0.0086403	-17.779	-0.020108	299.33
61.31650	-141.22	0.13324	0.0088431	-17.796	-0.020268	304.44
62.31650	-141.4	0.13612	0.009032	-17.817	-0.02028	309.74
63.31650	-141.51	0.13872	0.009203	-17.832	-0.020343	314.94
64.31650	-141.61	0.14129	0.0093744	-17.852	-0.020287	319.86
65.31650	-141.7	0.14391	0.0095472	-17.865	-0.02019	324.63
66.31650	-141.74	0.14698	0.0097494	-17.871	-0.02033	329.62
67.31650	-141.61	0.14996	0.0099467	-17.856	-0.019999	334.63
68.31650	-141.65	0.15268	0.010126	-17.867	-0.020002	339.67
69.31650	-141.85	0.15542	0.010309	-17.901	-0.02005	344.6
70.31650	-141.95	0.15863	0.01052	-17.912	-0.020082	349.41
71.31650	-141.96	0.16173	0.010726	-17.917	-0.020084	354.43
72.31650	-141.97	0.16475	0.010922	-17.922	-0.020003	359.65
73.31650	-142.04	0.16752	0.011107	-17.935	-0.019807	364.77
74.31650	-142.18	0.17014	0.011282	-17.954	-0.019892	369.74
75.31650	-142.18	0.17301	0.011471	-17.953	-0.019956	374.58
76.31650	-142.11	0.1761	0.011674	-17.952	-0.020035	379.34
77.31650	-142.16	0.17928	0.011883	-17.969	-0.019959	384.32
78.31650	-142.33	0.18259	0.012103	-17.99	-0.020091	389.61
79.31650	-142.46	0.18577	0.01231	-18.005	-0.019902	394.88
80.31650	-142.47	0.18856	0.012493	-18.009	-0.019994	400.21
81.31650	-142.59	0.19106	0.012658	-18.033	-0.019949	405.31
82.31650	-142.8	0.19369	0.012831	-18.064	-0.019856	410.01
83.31650	-142.87	0.19662	0.013022	-18.074	-0.020009	414.6
84.31650	-142.82	0.1999	0.013239	-18.068	-0.019731	419.4
85.31650	-142.79	0.20331	0.013463	-18.072	-0.019757	424.36
86.31650	-142.88	0.20639	0.013666	-18.089	-0.019708	429.52
87.31650	-143.18	0.20896	0.013834	-18.13	-0.019713	434.7
88.31650	-143.22	0.2116	0.014008	-18.131	-0.019777	439.61
89.31650	-143.14	0.21482	0.01422	-18.125	-0.01948	444.53
90.31650	-143.16	0.21795	0.014424	-18.137	-0.019969	449.47
91.31650	-143.23	0.2211	0.014632	-18.15	-0.019686	454.45
92.31650	-143.34	0.22424	0.01484	-18.162	-0.019373	459.57
93.31650	-143.37	0.22725	0.015036	-18.168	-0.018951	464.66
94.31650	-143.41	0.2301	0.015223	-18.181	-0.019154	469.71
95.31650	-143.64	0.2328	0.015403	-18.213	-0.018907	474.69
96.31650	-143.79	0.23579	0.015599	-18.232	-0.018677	479.51
97.31650	-143.77	0.23902	0.015809	-18.232	-0.018702	484.4
97.53610	-143.86	0.23973	0.015855	-18.247	-0.018747	485.46
98.53610	-143.81	0.24284	0.016059	-18.25	-0.018323	490.54
98.55980	-143.81	0.2429	0.016063	-18.249	-0.018218	490.66
99.55980	-143.77	0.24585	0.016259	-18.244	-0.018364	495.91
100.55980	-143.85	0.24866	0.016446	-18.266	-0.01769	501.08
101.55980	-144.06	0.25147	0.016627	-18.294	-0.01744	506.14
102.55980	-144.13	0.25452	0.016826	-18.302	-0.017422	511.18
103.55980	-144.13	0.25748	0.017021	-18.303	-0.016751	515.97
104.55980	-144.19	0.26055	0.017223	-18.318	-0.016403	520.91
105.55980	-144.25	0.26346	0.017413	-18.335	-0.015776	525.87
106.55980	-144.38	0.2665	0.017612	-18.351	-0.015108	530.78
107.55980	-144.38	0.26982	0.01783	-18.347	-0.015587	535.84
108.55980	-144.41	0.27295	0.018034	-18.355	-0.014914	540.97
109.55980	-144.49	0.27576	0.018218	-18.373	-0.014254	546.21
110.55980	-144.8	0.27796	0.01836	-18.417	-0.013187	551.38
111.55980	-144.82	0.2805	0.018527	-18.423	-0.012689	556.25
112.55980	-144.85	0.28329	0.018708	-18.426	-0.011944	560.98
113.55980	-144.79	0.28656	0.018922	-18.424	-0.0113	565.58
114.55980	-144.77	0.28993	0.019144	-18.431	-0.010599	570.41
115.55980	-145.08	0.29306	0.019348	-18.47	-0.010639	575.48
116.55980	-145.1	0.29619	0.019552	-18.475	-0.0092588	580.66
117.55980	-144.93	0.29926	0.019751	-18.458	-0.0097137	586.08
118.55980	-145.09	0.30194	0.019929	-18.482	-0.0085526	591.12
119.55980	-145.23	0.30454	0.020099	-18.508	-0.0073816	596.1
120.55980	-145.43	0.30705	0.020264	-18.532	-0.0074225	600.98
121.55980	-145.51	0.30973	0.020439	-18.545	-0.0022074	605.64
122.55980	-145.52	0.31264	0.020628	-18.551	0.0014857	610.43
123.55980	-145.45	0.31587	0.020837	-18.551	0.00080197	615.25
124.55980	-145.63	0.31918	0.021058	-18.574	-0.00096441	620.23
125.55980	-145.67	0.3224	0.02127	-18.579	-0.0011645	625.41
126.55980	-145.77	0.32519	0.021453	-18.588	0.0014066	630.65
127.55980	-145.82	0.32793	0.021628	-18.604	0.002842	635.92
128.55980	-145.98	0.33058	0.021801	-18.631	0.0029187	641.03
129.55980	-146.17	0.333	0.02196	-18.656	0.0037581	646
130.55980	-146.24	0.3355	0.022125	-18.666	0.0044707	650.93
131.55980	-146.27	0.33845	0.022313	-18.674	0.0051858	655.6
132.55980	-146.33	0.34122	0.022494	-18.691	0.0057954	660.4
133.55980	-146.42	0.34384	0.022664	-18.706	0.0061788	665.27
134.55980	-146.57	0.34684	0.022859	-18.724	0.0067285	670.24
135.55980	-146.58	0.34975	0.023049	-18.726	0.007186	675.29
136.55980	-146.66	0.35246	0.023224	-18.745	0.0077948	680.48
137.55980	-146.98	0.35516	0.023401	-18.791	0.0091141	685.57
138.47460	-147.23	0.35744	0.023548	-18.823	0.0090197	690.42
139.47460	-147.33	0.35981	0.023703	-18.837	0.009427	695.37
140.47460	-147.38	0.36236	0.02387	-18.848	0.0094408	700.21
141.47460	-147.53	0.3651	0.024048	-18.872	0.0097084	705.1
142.47460	-147.74	0.36765	0.024214	-18.899	0.010715	710.03
143.47460	-147.81	0.37043	0.024396	-18.907	0.011327	714.97
144.11360	-147.82	0.37229	0.024517	-18.916	0.01147	718.12
145.11360	-147.96	0.37495	0.024689	-18.939	0.011828	723.14
146.11360	-148.07	0.37757	0.024862	-18.95	0.012451	728.2
147.11360	-147.93	0.37927	0.024972	-18.935	0.012365	733.29
148.11360	-142.83	0.37951	0.024988	-18.288	0.012922	738.16
149.11360	-128.69	0.3793	0.024972	-16.478	0.012919	742.83
150.11360	-117.25	0.37764	0.024864	-15.01	0.012975	746.42
151.11360	-111.18	0.37567	0.02474	-14.23	0.01286	747.94
152.11360	-110.19	0.37436	0.024655	-14.1	0.013575	747.85
153.11360	-123.76	0.37514	0.024702	-15.838	0.013865	747.89
154.11360	-145.85	0.38036	0.025042	-18.673	0.01464	750.64
155.11360	-148.56	0.39551	0.026028	-19.034	0.014912	766.17
156.11360	-141.01	0.40103	0.026386	-18.078	0.014951	797.11
157.11360	-112.97	0.39288	0.025856	-14.477	0.015021	812.77
158.11360	-107.64	0.38181	0.025137	-13.782	0.015206	814.22
159.11360	-106.01	0.37284	0.024555	-13.561	0.015692	808.32
160.11360	-105.71	0.36677	0.024158	-13.519	0.015544	799.91
161.11360	-95.84	0.36899	0.024302	-12.264	0.015513	796.74
162.11360	-98.095	0.37652	0.02479	-12.561	0.015499	799.92
163.11360	-99.951	0.38427	0.025295	-12.798	0.015212	807.16
164.11360	-100.75	0.39025	0.025682	-12.905	0.015109	815.79
165.11360	-101.39	0.39385	0.025915	-12.994	0.015362	823.62
166.11360	-101.85	0.3962	0.026068	-13.057	0.015405	829.94
167.11360	-102.19	0.39833	0.026208	-13.1	0.015475	834.87
168.11360	-102.31	0.40091	0.026375	-13.111	0.014827	839.25
169.11360	-102.31	0.4041	0.026582	-13.12	0.015072	843.53
170.11360	-102.29	0.40778	0.026822	-13.12	0.014965	848.05
171.11360	-102.3	0.41164	0.027073	-13.127	0.014851	852.94
172.11360	-102.3	0.41579	0.027345	-13.125	0.014838	858.06
173.11360	-102.16	0.41997	0.027616	-13.111	0.015239	863.26
174.11360	-102.23	0.42352	0.027845	-13.129	0.014689	868.24
175.11360	-102.32	0.42704	0.028073	-13.141	0.014882	873
176.11360	-102.39	0.43113	0.028339	-13.148	0.015241	877.96
177.11360	-102.37	0.4352	0.028604	-13.151	0.015622	883.07
178.11360	-102.28	0.43946	0.028878	-13.144	0.016103	888.29
179.11360	-102.4	0.44347	0.029137	-13.168	0.015404	893.54
179.41210	-102.32	0.44461	0.029211	-13.156	0.01556	895.09
180.41210	-102.44	0.44841	0.029458	-13.174	0.015815	900.28
181.41210	-102.55	0.45232	0.029711	-13.192	0.016749	905.26
182.41210	-102.63	0.45587	0.029942	-13.201	0.016842	910.13
183.15740	-102.58	0.45885	0.030135	-13.205	0.017099	913.85
184.15740	-102.56	0.46258	0.030376	-13.204	0.017014	918.87
185.15740	-102.77	0.46643	0.030623	-13.228	0.017063	923.9
186.15740	-102.7	0.47034	0.030873	-13.225	0.017213	928.91
187.15740	-102.68	0.47409	0.031117	-13.228	0.017793	933.9
188.15740	-102.67	0.4777	0.031351	-13.231	0.018078	938.82
189.15740	-102.8	0.48112	0.031572	-13.249	0.018418	943.73
190.15740	-102.95	0.48449	0.031788	-13.272	0.018201	948.69
191.15740	-102.97	0.48783	0.032001	-13.278	0.018393	953.54
192.15740	-102.91	0.49155	0.032242	-13.271	0.018726	958.38
193.15740	-102.93	0.49551	0.0325	-13.282	0.01854	963.5
194.15740	-102.96	0.49901	0.032725	-13.285	0.018452	968.66
195.15740	-103.18	0.50258	0.032956	-13.313	0.019232	973.8
196.15740	-103.18	0.50609	0.03318	-13.317	0.019007	978.94
197.15740	-103.11	0.50937	0.033392	-13.311	0.018998	983.89
198.15740	-103.19	0.5126	0.033602	-13.328	0.018892	988.91
199.15740	-103.23	0.51601	0.033826	-13.338	0.019342	994.02
200.15740	-103.28	0.51908	0.03402	-13.343	0.01948	999.11
201.15740	-103.22	0.52228	0.034224	-13.336	0.019594	1004
202.15740	-103.2	0.52528	0.03442	-13.338	0.019669	1009
203.15740	-103.18	0.52837	0.034622	-13.34	0.019477	1013.7
204.15740	-103.38	0.53112	0.034799	-13.365	0.019821	1018.6
205.15740	-103.57	0.53384	0.034972	-13.389	0.020289	1023.7
206.15740	-103.56	0.53673	0.035159	-13.389	0.020509	1028.6
207.15740	-103.54	0.53907	0.035311	-13.391	0.020488	1033.8
208.15740	-103.81	0.54115	0.035443	-13.43	0.020698	1038.8
209.15740	-103.86	0.54347	0.035591	-13.439	0.020493	1043.7
210.15740	-103.93	0.54549	0.035722	-13.449	0.020436	1048.7
211.15740	-104.21	0.54718	0.035828	-13.483	0.020894	1053.8
212.15740	-104.12	0.54926	0.035964	-13.477	0.021295	1059
213.15740	-104.77	0.55031	0.036033	-13.562	0.021249	1064.1
214.15740	-105.11	0.55123	0.036088	-13.608	0.021419	1069.2
215.15740	-105.15	0.55206	0.036141	-13.611	0.021918	1074.2
216.15740	-105.38	0.5522	0.036153	-13.64	0.021842	1079.1
217.15740	-105.31	0.55222	0.036152	-13.632	0.021932	1083.8
218.15740	-104.74	0.55258	0.036172	-13.562	0.022153	1088.6
219.15740	-104.62	0.55284	0.036191	-13.547	0.021902	1093.6
220.15740	-103.74	0.55275	0.036187	-13.434	0.022354	1098.7
220.38430	-103.4	0.55281	0.036191	-13.393	0.022476	1100
221.38430	-101.93	0.55289	0.036193	-13.198	0.02243	1105
222.31060	-100.79	0.55333	0.036222	-13.049	0.022582	1109.6
223.31060	-99.18	0.5533	0.036225	-12.841	0.022961	1114.7
224.31060	-97.731	0.55324	0.036222	-12.655	0.022727	1119.7
225.31060	-96.16	0.55339	0.036227	-12.452	0.023054	1124.6
226.31060	-94.715	0.55363	0.036243	-12.26	0.023662	1129.4
227.31060	-93.348	0.55361	0.036245	-12.084	0.023227	1134.6
228.31060	-91.601	0.55356	0.036242	-11.858	0.023116	1139.8
229.31060	-90.034	0.55361	0.036244	-11.66	0.023867	1144.7
230.31060	-88.519	0.5538	0.036256	-11.464	0.023424	1149.8
231.31060	-87.311	0.5538	0.036259	-11.302	0.02364	1154.7
232.31060	-86.1	0.55374	0.036254	-11.145	0.023597	1159.6
233.31060	-84.962	0.55378	0.036255	-11.003	0.023635	1164.7
234.31060	-83.69	0.55391	0.036263	-10.84	0.023583	1169.6
235.31060	-82.904	0.554	0.03627	-10.731	0.02342	1174.5
236.31060	-82.212	0.55396	0.036268	-10.641	0.023695	1179.6
237.31060	-81.144	0.55387	0.036261	-10.502	0.023341	1184.9
238.31060	-79.629	0.55375	0.036251	-10.313	0.023831	1189.7
239.31060	-78.983	0.55398	0.036265	-10.231	0.023685	1194.3
240.31060	-78.496	0.55412	0.036275	-10.163	0.023725	1199.2
241.31060	-75.436	0.55314	0.036211	-9.7643	0.023884	1202.5
242.31060	-72.132	0.55148	0.036106	-9.3341	0.023946	1203.1
243.31060	-69.491	0.5503	0.03603	-8.999	0.024075	1202.4
244.31060	-68.241	0.54957	0.035983	-8.8347	0.023797	1201.5
245.31060	-67.266	0.5493	0.035964	-8.7103	0.023515	1201
246.31060	-67.263	0.54927	0.03596	-8.7091	0.023511	1200.5
247.31060	-67.32	0.54919	0.035956	-8.7161	0.024042	1200.6
248.31060	-66.282	0.5492	0.035956	-8.5813	0.023403	1200.6
249.31060	-67.04	0.54849	0.035912	-8.6807	0.023613	1200.5
250.31060	-66.667	0.54795	0.035881	-8.6275	0.023985	1200.3
251.31060	-66.656	0.54751	0.035849	-8.6264	0.023753	1200.1
252.31060	-66.596	0.54704	0.035821	-8.6213	0.023578	1200.2
253.31060	-65.901	0.54686	0.035813	-8.5299	0.0232	1200.2
254.31060	-66.582	0.54612	0.035766	-8.6158	0.023373	1200.2
255.31060	-65.9	0.54591	0.035751	-8.526	0.023317	1200.1
256.31060	-66.572	0.54527	0.035709	-8.6149	0.023334	1200.2
257.31060	-65.876	0.54523	0.035707	-8.5247	0.023868	1200.2
258.31060	-65.423	0.54503	0.035696	-8.4648	0.023463	1200.2
259.31060	-66.542	0.54435	0.035651	-8.6097	0.023462	1200.2
260.31060	-65.574	0.54423	0.035642	-8.4837	0.02319	1200.3
261.31060	-65.733	0.5439	0.035622	-8.5066	0.023673	1200.3
261.31310	-65.733	0.54388	0.03562	-8.5067	0.023673	1200.3
262.31310	-65.933	0.54341	0.035588	-8.5334	0.023076	1200.3
263.31310	-66.14	0.54297	0.035559	-8.5566	0.02347	1200.3
264.31310	-65.816	0.54247	0.035526	-8.5139	0.02313	1200.3
265.31310	-65.032	0.54216	0.035507	-8.4161	0.023703	1200.2
266.31310	-65.865	0.54127	0.035448	-8.5243	0.023698	1200.2
267.31310	-66.157	0.54068	0.035413	-8.5583	0.023343	1200.1
268.31310	-65.025	0.54063	0.035409	-8.4106	0.02299	1200.1
269.31310	-65.698	0.54015	0.035374	-8.4994	0.023273	1200.1
270.31310	-64.954	0.53988	0.035358	-8.4061	0.02337	1200.1
271.31310	-64.47	0.53968	0.035346	-8.3384	0.024071	1200.2
272.31310	-65.032	0.53945	0.035332	-8.4101	0.02348	1200.3
273.31310	-64.728	0.53901	0.0353	-8.3777	0.02322	1200.2
274.31310	-65.213	0.53837	0.035261	-8.4353	0.023708	1200.1
275.31310	-64.57	0.5382	0.035253	-8.3505	0.023395	1200.1
276.31310	-63.693	0.5383	0.035259	-8.2367	0.023422	1200.1
277.31310	-64.346	0.53811	0.035244	-8.326	0.023279	1200.1
278.31310	-64.537	0.5374	0.035201	-8.3498	0.023653	1200.2
279.31310	-64.916	0.53675	0.035161	-8.3934	0.023529	1199.9
280.31310	-64.553	0.5365	0.035144	-8.3506	0.023431	1199.7
281.31310	-64.632	0.5361	0.035117	-8.3601	0.02339	1199.7
282.31310	-64.794	0.53587	0.035101	-8.3838	0.023716	1199.8
283.31310	-64.218	0.53579	0.035099	-8.2985	0.023245	1200.1
284.31310	-62.885	0.53587	0.035107	-8.1325	0.023202	1200.1
285.31310	-64.352	0.53543	0.035075	-8.3258	0.023625	1200.1
286.31310	-64.581	0.53511	0.035052	-8.3522	0.023641	1200.1
287.31310	-63.772	0.5349	0.035039	-8.2437	0.023481	1200.2
288.31310	-63.016	0.53468	0.035026	-8.146	0.023939	1200.1
289.31310	-64.244	0.53409	0.034989	-8.3092	0.023733	1200
290.31310	-63.759	0.53399	0.034983	-8.2491	0.023479	1200
291.31310	-62.922	0.5341	0.034988	-8.1366	0.023524	1199.9
292.31310	-64.403	0.53328	0.034933	-8.3252	0.023324	1199.9
293.31310	-64.069	0.53314	0.034923	-8.285	0.023999	1200
294.31310	-63.456	0.53307	0.034919	-8.2112	0.024064	1200.1
295.31310	-62.906	0.53306	0.034921	-8.1327	0.023912	1200.1
296.31310	-62.448	0.53325	0.034933	-8.0731	0.023499	1200
297.31310	-64.089	0.53269	0.034895	-8.2897	0.023848	1200.1
298.31310	-63.687	0.53265	0.03489	-8.2386	0.024022	1200
299.31310	-63.367	0.53244	0.034878	-8.1946	0.024007	1200.1
300.31310	-62.939	0.53239	0.034875	-8.1367	0.024162	1200.1
301.31310	-62.433	0.53262	0.034896	-8.0731	0.023766	1200.1
302.31310	-62.235	0.53282	0.034905	-8.0509	0.0243	1200.2
302.34170	-62.261	0.53279	0.034903	-8.0545	0.024471	1200.2
303.34170	-62.41	0.53269	0.034896	-8.0706	0.024498	1200.2
304.34170	-63.154	0.53254	0.034888	-8.1639	0.024478	1200.5
305.34170	-62.216	0.53245	0.034885	-8.0431	0.024551	1200.5
306.34170	-61.666	0.53264	0.034896	-7.9752	0.024419	1200.4
307.34170	-63.485	0.53201	0.034856	-8.2113	0.024733	1200.1
308.34170	-63.048	0.53187	0.034846	-8.1457	0.024339	1199.9
309.34170	-63.407	0.53186	0.034846	-8.1949	0.024902	1199.8
310.34170	-63.739	0.53171	0.034833	-8.245	0.024867	1200
311.34170	-63.62	0.5318	0.034841	-8.2267	0.025185	1200.1
312.34170	-63.339	0.53186	0.034846	-8.1837	0.024816	1200.1
313.34170	-62.764	0.53202	0.034857	-8.1147	0.02457	1200.1
314.34170	-62.136	0.53216	0.034865	-8.034	0.024972	1200
315.34170	-62.32	0.53241	0.03488	-8.0628	0.024581	1200
316.34170	-62.382	0.53248	0.034883	-8.0639	0.024489	1200
317.34170	-62.547	0.53255	0.034887	-8.0845	0.024731	1199.9
318.34170	-62.662	0.53248	0.034881	-8.1045	0.024995	1199.9
319.34170	-62.96	0.53257	0.034888	-8.1411	0.02495	1199.7
320.34170	-63.912	0.53269	0.034895	-8.2629	0.025413	1199.9
321.34170	-64.483	0.53272	0.034896	-8.3338	0.025146	1200.1
322.34170	-64.41	0.53288	0.034907	-8.3294	0.024918	1200.4
323.34170	-64.68	0.53298	0.034915	-8.3649	0.025294	1200.5
324.34170	-64.471	0.53312	0.034924	-8.3355	0.02485	1200.4
325.34170	-64.443	0.53329	0.034936	-8.3306	0.024901	1200.4
326.34170	-64.012	0.53339	0.034942	-8.2761	0.024749	1200.3
327.34170	-63.418	0.53356	0.034952	-8.2023	0.025334	1200.2
328.34170	-63.183	0.53375	0.034964	-8.174	0.025415	1200.1
329.34170	-63.54	0.53392	0.034976	-8.2163	0.025254	1200.2
330.34170	-62.909	0.53404	0.034983	-8.1341	0.025347	1200.2
331.34170	-62.6	0.53417	0.034992	-8.0957	0.025377	1200.1
332.34170	-64.187	0.53404	0.034983	-8.3017	0.025559	1200
333.34170	-64.107	0.53416	0.034991	-8.2903	0.025237	1200.1
334.34170	-63.484	0.53415	0.034993	-8.2069	0.025548	1200.2
335.34170	-62.762	0.53415	0.034996	-8.1149	0.024869	1200.1
336.34170	-63.486	0.53398	0.034983	-8.2128	0.025682	1200.1
337.34170	-63.235	0.53386	0.034975	-8.1758	0.025366	1200
338.34170	-62.777	0.53377	0.034971	-8.1135	0.025662	1200
339.34170	-62.477	0.53374	0.034968	-8.0764	0.025646	1200
340.34170	-62.2	0.53389	0.034975	-8.0429	0.026395	1200
341.34170	-63.01	0.53377	0.034964	-8.1506	0.026554	1200.1
342.34170	-63.581	0.53339	0.03494	-8.2224	0.025574	1200
343.28290	-63.253	0.53352	0.034949	-8.1742	0.02578	1199.9
344.28290	-63.147	0.53345	0.034946	-8.1667	0.025603	1200
345.28290	-62.533	0.5333	0.034937	-8.0879	0.025652	1200.2
346.21430	-62.147	0.53325	0.034931	-8.0401	0.025502	1200.1
347.21430	-61.81	0.53336	0.034937	-7.9924	0.026118	1200
348.21430	-61.529	0.53348	0.034945	-7.9561	0.026486	1200
349.21430	-63.997	0.53288	0.034908	-8.2804	0.026209	1200
350.21430	-63.85	0.53265	0.034894	-8.2617	0.025811	1200
351.21430	-63.388	0.53255	0.034886	-8.1964	0.026484	1200.1
352.21430	-63.098	0.53266	0.034893	-8.1557	0.026352	1200.1
353.21430	-62.884	0.53282	0.034905	-8.1303	0.025703	1200
354.21430	-62.714	0.53271	0.034899	-8.11	0.02607	1200.1
355.21430	-62.501	0.53257	0.03489	-8.0836	0.026299	1200
356.21430	-62.691	0.53268	0.034897	-8.1067	0.026508	1200
357.21430	-62.947	0.53261	0.034892	-8.1377	0.025992	1200
358.21430	-62.988	0.53218	0.034866	-8.1407	0.026614	1200
359.21430	-63.293	0.53209	0.034858	-8.1833	0.026406	1200
360.21430	-63.302	0.53214	0.034863	-8.1882	0.026927	1200.2
361.21430	-62.958	0.53193	0.034852	-8.1389	0.026464	1200.2
362.21430	-62.845	0.53159	0.034829	-8.1189	0.026772	1200.1
363.21430	-62.475	0.5317	0.034834	-8.0759	0.02929	1200
364.21430	-62.691	0.53185	0.034845	-8.1077	0.034354	1200
365.21430	-62.93	0.53158	0.034829	-8.1374	0.03642	1200.1
366.21430	-61.877	0.53124	0.034803	-8.0045	0.035561	1199.9
367.21430	-64.865	0.53004	0.034725	-8.3845	0.034375	1199.6
368.21430	-65.579	0.53014	0.034731	-8.4749	0.035008	1199.7
369.21430	-65.693	0.52996	0.034722	-8.4937	0.03444	1199.9
370.21430	-65.181	0.52964	0.034701	-8.4299	0.033887	1199.9
371.21430	-64.873	0.52956	0.034694	-8.3877	0.033551	1199.9
372.21430	-64.539	0.52974	0.034706	-8.3433	0.032637	1199.9
373.21430	-64.214	0.52953	0.034693	-8.2985	0.033362	1199.9
374.21430	-64.383	0.52884	0.034649	-8.3261	0.036512	1199.9
375.21430	-65.819	0.52799	0.03459	-8.5136	0.039671	1199.9
376.21430	-65.759	0.52813	0.034603	-8.502	0.037931	1200.2
377.21430	-64.363	0.52768	0.034573	-8.3189	0.036593	1200.1
378.21430	-65.566	0.52617	0.034476	-8.4742	0.035341	1200
379.21430	-64.865	0.52599	0.034463	-8.3872	0.037161	1199.8
380.21430	-65.975	0.5254	0.034428	-8.5295	0.037808	1199.8
381.21430	-65.696	0.52497	0.034404	-8.4887	0.039142	1200
382.21430	-65.016	0.52477	0.03439	-8.4025	0.040455	1199.9
383.21430	-64.516	0.52473	0.034384	-8.3408	0.037189	1200
384.21430	-64.47	0.52454	0.034372	-8.3348	0.03577	1200
384.23110	-64.534	0.52453	0.034371	-8.3434	0.035836	1200
385.23110	-65.869	0.52364	0.034318	-8.5133	0.037878	1200
386.23110	-64.894	0.52316	0.034288	-8.3841	0.039676	1200.1
387.23110	-65.65	0.52251	0.034242	-8.479	0.040071	1200.1
388.23110	-65.334	0.52215	0.034217	-8.444	0.039618	1200
389.23110	-64.94	0.52215	0.034218	-8.3925	0.042994	1200
390.23110	-64.728	0.52208	0.034216	-8.3678	0.04377	1200.1
391.23110	-64.344	0.52203	0.034212	-8.3124	0.044061	1200
392.23110	-64.407	0.52183	0.0342	-8.3183	0.043626	1200.1
393.23110	-64.055	0.52158	0.034184	-8.2779	0.044588	1200.1
394.23110	-63.9	0.52151	0.034179	-8.2577	0.04482	1200.1
395.23110	-63.66	0.52143	0.034173	-8.2261	0.04712	1200
396.23110	-63.914	0.52132	0.034164	-8.256	0.047912	1200
397.23110	-66.017	0.52041	0.034105	-8.5258	0.048604	1200.1
398.23110	-66.194	0.52027	0.034097	-8.5529	0.048774	1200.3
399.23110	-65.822	0.52016	0.03409	-8.5105	0.050176	1200.2
400.23110	-65.275	0.52023	0.034095	-8.432	0.048925	1200.1
401.23110	-65.098	0.52035	0.034102	-8.4108	0.050621	1200
402.23110	-65.162	0.52045	0.034108	-8.4188	0.051746	1199.9
403.23110	-65.02	0.52045	0.034108	-8.4072	0.050633	1200
404.23110	-64.974	0.52033	0.034097	-8.3965	0.052061	1200.1
405.23110	-64.962	0.52022	0.034091	-8.3914	0.052149	1200.1
406.23110	-64.738	0.52005	0.034084	-8.3669	0.054128	1200
407.23110	-64.814	0.52003	0.034084	-8.3777	0.052836	1200
408.23110	-64.506	0.52012	0.034091	-8.3359	0.052686	1200
409.23110	-64.561	0.52027	0.034097	-8.3378	0.054534	1199.9
410.23110	-64.977	0.52012	0.034087	-8.3961	0.0545	1200
411.23110	-64.837	0.51992	0.034078	-8.3762	0.054691	1200.1
412.23110	-64.774	0.52014	0.034094	-8.361	0.056154	1200
413.23110	-64.648	0.52023	0.034094	-8.35	0.056031	1200.1
414.23110	-64.58	0.51995	0.034076	-8.3477	0.055854	1200
415.23110	-65.203	0.51986	0.034074	-8.4242	0.055425	1200.1
416.23110	-65.535	0.52007	0.034087	-8.4654	0.056522	1200.1
417.23110	-65.528	0.52018	0.03409	-8.4651	0.057131	1200.1
418.23110	-66.03	0.5201	0.034085	-8.5312	0.05739	1200
419.23110	-66.509	0.51994	0.034078	-8.5928	0.057801	1200.2
420.23110	-66.483	0.52013	0.03409	-8.5876	0.057437	1200.1
421.23110	-65.034	0.51736	0.033907	-8.4006	0.057923	1198
422.23110	-66.214	0.51165	0.03354	-8.5492	0.055597	1193.2
423.23110	-66.292	0.50731	0.033263	-8.5583	0.052609	1187.6
424.23110	-66.176	0.50368	0.033026	-8.5413	0.053005	1181.9
425.23110	-65.911	0.5005	0.032819	-8.5034	0.055877	1176.6
425.26620	-65.91	0.50035	0.03281	-8.5043	0.055749	1176.4
426.26620	-65.771	0.49704	0.032596	-8.488	0.056226	1171.2
427.26620	-65.757	0.49376	0.032386	-8.4816	0.059052	1166
428.26620	-65.696	0.49074	0.032192	-8.4738	0.058589	1160.9
429.26620	-65.696	0.48751	0.031983	-8.4725	0.05801	1155.9
430.26620	-65.726	0.48389	0.031747	-8.4758	0.058062	1150.7
431.26620	-65.684	0.48016	0.031505	-8.4702	0.058957	1145.6
432.26620	-65.754	0.47664	0.031283	-8.47	0.05869	1140.6
433.26620	-65.625	0.47321	0.031067	-8.4484	0.057386	1135.3
434.26620	-65.644	0.46999	0.030854	-8.4569	0.056687	1130.3
435.26620	-65.78	0.46644	0.030621	-8.4754	0.057148	1125.3
436.26620	-65.797	0.46278	0.030387	-8.4677	0.058571	1120.4
437.26620	-65.79	0.45904	0.030149	-8.4644	0.059805	1115.5
438.26620	-65.731	0.45569	0.029931	-8.4546	0.061072	1110.7
439.26620	-65.762	0.45223	0.029704	-8.4646	0.061872	1105.7
440.26620	-65.88	0.44866	0.029472	-8.4703	0.06197	1100.8
441.26620	-65.846	0.44478	0.029222	-8.4628	0.06079	1095.7
442.26620	-65.782	0.44159	0.029018	-8.4581	0.061207	1090.8
443.26620	-65.923	0.43776	0.028767	-8.4738	0.060653	1085.8
444.26620	-65.972	0.4337	0.028503	-8.4756	0.060018	1080.6
445.26620	-65.976	0.42959	0.028238	-8.4719	0.060336	1075.6
446.26620	-65.856	0.42592	0.028	-8.4587	0.059491	1070.6
447.26620	-66.059	0.42194	0.027741	-8.4819	0.059475	1065.7
448.26620	-66.07	0.41762	0.027457	-8.4767	0.058609	1060.7
449.26620	-65.975	0.41328	0.027179	-8.4664	0.05848	1055.7
450.26620	-66.055	0.40947	0.026932	-8.4729	0.058943	1050.7
451.26620	-66.127	0.40554	0.026675	-8.4854	0.05935	1045.6
452.26620	-66.08	0.40125	0.026395	-8.473	0.061841	1040.6
453.26620	-66.049	0.39678	0.026107	-8.4642	0.063629	1035.6
454.26620	-66.033	0.39257	0.025835	-8.4638	0.063725	1030.6
455.26620	-66.204	0.38837	0.025564	-8.4839	0.062976	1025.6
456.26620	-66.183	0.38426	0.025294	-8.4738	0.063369	1020.7
457.26620	-66.129	0.37978	0.025004	-8.4647	0.062536	1015.7
458.26620	-66.14	0.37565	0.024735	-8.4659	0.061895	1010.7
459.26620	-66.299	0.37134	0.024456	-8.4865	0.061958	1005.6
460.26620	-66.405	0.36696	0.024169	-8.4923	0.062254	1000.6
461.26620	-66.216	0.36275	0.023898	-8.466	0.060828	995.48
462.26620	-66.209	0.35863	0.023631	-8.4666	0.060931	990.5
463.26620	-66.333	0.35439	0.023356	-8.4767	0.061557	985.51
464.26620	-66.451	0.35036	0.023092	-8.4896	0.062745	980.52
465.26620	-66.361	0.34623	0.022822	-8.473	0.064256	975.48
466.20840	-66.345	0.34251	0.022581	-8.4708	0.064897	970.9
467.20840	-66.413	0.33858	0.022324	-8.478	0.065481	965.86
468.20840	-66.453	0.33446	0.022056	-8.481	0.063959	960.85
469.20840	-66.498	0.33037	0.021788	-8.4853	0.06387	955.87
470.04300	-66.413	0.32693	0.021562	-8.4763	0.063927	951.73
471.04300	-66.492	0.32282	0.021291	-8.4846	0.063546	946.69
472.04300	-66.632	0.31875	0.021026	-8.4957	0.063096	941.8
473.04300	-66.548	0.31478	0.020768	-8.4827	0.062617	936.72
474.04300	-66.528	0.31097	0.020518	-8.4781	0.063169	931.72
475.04300	-66.683	0.30728	0.020276	-8.4988	0.063371	926.68
476.04300	-66.741	0.30333	0.020018	-8.5031	0.062572	921.76
477.04300	-66.859	0.29922	0.01975	-8.5139	0.06434	916.7
478.04300	-66.818	0.29519	0.019489	-8.5066	0.062853	911.66
479.04300	-66.699	0.29117	0.019224	-8.4935	0.063205	906.73
480.04300	-66.796	0.28702	0.018957	-8.5063	0.062175	901.73
481.04300	-66.962	0.28291	0.018684	-8.5208	0.06461	896.67
482.04300	-66.9	0.27892	0.018422	-8.5084	0.067014	891.71
483.04300	-66.825	0.27501	0.018169	-8.4954	0.066561	886.7
484.04300	-66.839	0.27123	0.017923	-8.5005	0.064819	881.68
485.04300	-66.938	0.26722	0.017658	-8.5117	0.06609	876.76
486.04300	-67.051	0.26295	0.017379	-8.5185	0.06635	871.74
487.04300	-66.971	0.25873	0.017104	-8.5011	0.066307	866.63
488.04300	-67.014	0.2546	0.016834	-8.5098	0.066251	861.61
489.04300	-67.066	0.25038	0.01656	-8.5183	0.066566	856.67
490.04300	-67.236	0.24611	0.016275	-8.5312	0.065164	851.73
491.04300	-67.291	0.24212	0.016014	-8.5342	0.065394	846.71
492.04300	-67.238	0.23786	0.015736	-8.5249	0.066153	841.72
493.04300	-67.333	0.2334	0.015443	-8.5406	0.0681	836.74
494.04300	-67.522	0.22894	0.015148	-8.5622	0.068233	831.74
495.04300	-67.548	0.2244	0.014848	-8.5593	0.067356	826.74
496.04300	-67.573	0.21979	0.014547	-8.5574	0.068797	821.79
497.04300	-67.657	0.21527	0.014249	-8.5734	0.066871	816.81
498.04300	-67.703	0.21048	0.013935	-8.5732	0.067219	811.83
499.04300	-67.872	0.20589	0.013633	-8.5887	0.066657	806.73
500.04300	-67.907	0.1605	0.01063	-8.5672	0.05351	801.73
501.04300	-67.998	0.0047787	0.00031334	-8.4948	0.061453	797.82
501.10000	-67.999	0.0044971	0.00029467	-8.4942	0.061596	797.79
506.10000	-82.491	-3.6823e-05	-3.8742e-06	-10.301	0.025559	799.01
511.10000	-88.669	0.00087366	5.8781e-05	-11.072	-0.031302	799.87
516.10000	-91.982	0.0016706	0.00011179	-11.486	-0.089621	799.92
521.10000	-93.909	0.0018776	0.0001262	-11.726	-0.1514	799.94
526.10000	-94.171	0.0021253	0.00014132	-11.76	-0.21029	799.98
531.10000	-91.558	0.0019528	0.0001294	-11.436	-0.27132	799.95
536.10000	-86.71	0.0014001	9.4003e-05	-10.829	-0.33282	799.93
541.10000	-78.932	0.0010203	7.1041e-05	-9.8561	-0.39269	799.87
546.10000	-72.229	0.00053587	3.6437e-05	-9.0199	-0.45039	799.97
551.10000	-67.038	-0.00018591	-1.2834e-05	-8.3709	-0.51089	799.99
556.10000	-65.531	-0.0019628	-0.00013159	-8.1818	-0.56988	800.15
561.10000	-64.313	-0.0036473	-0.00024354	-8.0309	-0.631	800.04
566.10000	-64.184	-0.004869	-0.0003224	-8.0121	-0.69219	800.14
571.10000	-64.401	-0.0061566	-0.00040897	-8.038	-0.74999	800
576.10000	-64.827	-0.0073962	-0.00049467	-8.0913	-0.80947	799.89
581.10000	-65.301	-0.0079259	-0.00052995	-8.1498	-0.86999	800.04
586.10000	-65.868	-0.0091546	-0.00061003	-8.2195	-0.9288	799.78
591.10000	-66.023	-0.0093244	-0.00061809	-8.2393	-0.99029	799.98
596.10000	-65.168	-0.0096021	-0.00063821	-8.1301	-1.0504	800.08
601.10000	-63.481	-0.0098505	-0.00065652	-7.9201	-1.1078	799.8
606.10000	-62.528	-0.010134	-0.00067627	-7.8026	-1.1673	799.97
611.10000	-65.103	-0.011174	-0.00074502	-8.1241	-1.2258	800.03
616.10000	-64.841	-0.01134	-0.00075472	-8.0906	-1.2861	800.06
621.10000	-63.93	-0.011565	-0.00076916	-7.9767	-1.3467	800.04
626.10000	-63.825	-0.01229	-0.00081965	-7.9626	-1.407	799.95
631.10000	-64.742	-0.013039	-0.00087088	-8.0792	-1.4676	799.99
636.10000	-63.117	-0.012273	-0.00082139	-7.8801	-1.5226	800.03
641.10000	-64.71	-0.0123	-0.00082098	-8.0755	-1.5829	800.05
646.10000	-64.06	-0.01242	-0.0008269	-7.9906	-1.6414	799.96
651.10000	-64.251	-0.012471	-0.00083082	-8.0154	-1.701	800.01
656.10000	-64.021	-0.012546	-0.00083808	-7.9864	-1.7618	799.96
661.10000	-63.844	-0.012552	-0.00083773	-7.9665	-1.8216	799.93
666.10000	-63.383	-0.012376	-0.00082302	-7.9097	-1.8818	800.02
671.10000	-64.306	-0.013172	-0.00087785	-8.0233	-1.9419	800
676.10000	-65.657	-0.013997	-0.00093171	-8.1888	-2.0016	800.01
681.10000	-105.67	-0.0090506	-0.00060503	-13.189	-2.062	800.29
686.10000	-231.54	-0.03139	-0.0020978	-28.85	-2.1198	800.34
691.10000	-301.26	-0.078923	-0.005276	-37.415	-2.1785	799.94
696.10000	-351.57	-0.13032	-0.0087243	-43.515	-2.2393	799.77
701.10000	-388.76	-0.18193	-0.012201	-47.951	-2.2994	799.99
706.10000	-416.91	-0.23168	-0.015568	-51.252	-2.3578	799.93
711.10000	-445.86	-0.28402	-0.019118	-54.616	-2.4194	800.05
716.10000	-468.71	-0.3355	-0.022622	-57.216	-2.4785	799.92
721.10000	-492.38	-0.38596	-0.026065	-59.897	-2.5368	799.98
726.10000	-512.15	-0.43921	-0.029718	-62.076	-2.5983	799.96
731.10000	-529.67	-0.48895	-0.033141	-63.98	-2.6567	800.02
736.10000	-547.25	-0.54026	-0.036686	-65.871	-2.7157	799.98
741.10000	-567.71	-0.5926	-0.04031	-68.085	-2.7757	800.03
746.10000	-584.76	-0.64472	-0.043931	-69.876	-2.8353	799.99
751.10000	-598.92	-0.69818	-0.047662	-71.302	-2.8958	799.75
756.10000	-614.1	-0.74979	-0.051278	-72.844	-2.954	800.01
761.10000	-630.12	-0.80277	-0.055006	-74.467	-3.0138	800.08
766.10000	-646.41	-0.85593	-0.058756	-76.108	-3.0745	800.03
771.10000	-659.67	-0.90854	-0.06248	-77.378	-3.134	800.06
776.10000	-671.59	-0.95908	-0.066073	-78.495	-3.1934	800.04
781.10000	-690.94	-1.0131	-0.069926	-80.446	-3.2539	799.98
786.10000	-701.02	-1.0661	-0.073731	-81.311	-3.3138	799.99
791.10000	-712.69	-1.1181	-0.077463	-82.355	-3.3725	799.98
796.10000	-723.52	-1.1698	-0.081191	-83.296	-3.4322	799.97
801.10000	-739.44	-1.2229	-0.085038	-84.801	-3.4939	799.98
806.10000	-751.65	-1.2744	-0.088786	-85.878	-3.5531	799.98
811.10000	-764.68	-1.3271	-0.092639	-87.033	-3.6131	799.95
816.10000	-773.92	-1.38	-0.096513	-87.743	-3.6727	799.98
821.10000	-784.79	-1.4308	-0.10024	-88.644	-3.733	800.01
826.10000	-797.96	-1.4819	-0.10402	-89.79	-3.7928	800.01
831.10000	-811.16	-1.5374	-0.10814	-90.904	-3.8556	800.05
836.10000	-819.67	-1.5892	-0.11199	-91.503	-3.9146	800.04
841.10000	-830.13	-1.641	-0.11586	-92.314	-3.9746	799.97
846.10000	-839.67	-1.6934	-0.11979	-93.007	-4.0355	800.11
851.10000	-848.5	-1.7464	-0.12378	-93.61	-4.0954	800.01
856.10000	-862.86	-1.799	-0.12776	-94.818	-4.1548	800.06
861.10000	-871.34	-1.8515	-0.13175	-95.368	-4.2146	799.98
866.10000	-883.42	-1.9039	-0.13574	-96.306	-4.2757	800.02
871.10000	-890.49	-1.9583	-0.13989	-96.672	-4.3377	799.96
876.10000	-897.97	-2.0095	-0.14383	-97.101	-4.3958	799.98
881.10000	-908.19	-2.0639	-0.14803	-97.794	-4.4555	799.91
886.10000	-915.96	-2.1174	-0.15217	-98.226	-4.5176	800.04
891.10000	-924	-2.1706	-0.15631	-98.679	-4.5782	799.93
896.10000	-929.74	-2.2232	-0.16042	-98.884	-4.6373	800.1
901.10000	-938.46	-2.2755	-0.16452	-99.402	-4.6964	799.99
906.10000	-945.75	-2.328	-0.16865	-99.762	-4.7551	800.03
911.10000	-947.09	-2.3789	-0.17268	-99.501	-4.8145	799.93
916.10000	-957.18	-2.4336	-0.17702	-100.13	-4.8764	799.98
921.10000	-958.5	-2.4858	-0.18119	-99.848	-4.9348	800
926.10000	-964.76	-2.539	-0.18545	-100.07	-4.9929	799.89
931.10000	-965.93	-2.5924	-0.18974	-99.763	-5.0522	800.05
936.10000	-972.96	-2.6464	-0.1941	-100.05	-5.1125	800.11
941.10000	-976.96	-2.7001	-0.19847	-100.03	-5.1717	800
946.10000	-983.92	-2.7537	-0.20283	-100.3	-5.2315	799.98
951.10000	-985.31	-2.8064	-0.20714	-100.01	-5.2897	800
956.10000	-989.05	-2.8579	-0.21137	-99.967	-5.3493	799.94
961.10000	-993.56	-2.9119	-0.21583	-99.975	-5.4094	800
966.10000	-996.65	-2.9661	-0.22032	-99.838	-5.4699	799.98
971.10000	-999.86	-3.0197	-0.22479	-99.713	-5.5293	800.01
976.10000	-996.86	-3.0722	-0.22918	-98.977	-5.589	799.92
981.10000	-1008.3	-3.1264	-0.23373	-99.657	-5.6488	799.99
986.10000	-1010	-3.1816	-0.2384	-99.361	-5.7096	800.02
991.10000	-1012.5	-3.236	-0.24301	-99.151	-5.7701	800.1
996.10000	-1013.9	-3.2893	-0.24755	-98.84	-5.8305	799.89
1001.10000	-1015.1	-3.3406	-0.25194	-98.523	-5.8914	800.02
1006.10000	-1019.8	-3.3934	-0.25647	-98.524	-5.9515	799.92
1011.10000	-1021.8	-3.4463	-0.26105	-98.268	-6.011	799.95
1016.10000	-1026.3	-3.5	-0.26571	-98.246	-6.0714	800.06
1021.10000	-1025.4	-3.5528	-0.27031	-97.71	-6.1317	800.15
1026.10000	-1028	-3.6055	-0.27492	-97.507	-6.1912	799.98
1031.10000	-1034.2	-3.6597	-0.27968	-97.628	-6.2516	799.99
1036.10000	-1036.9	-3.7134	-0.28444	-97.419	-6.3116	800
1041.10000	-1040.7	-3.7674	-0.28923	-97.305	-6.3725	799.93
1046.10000	-1041	-3.8198	-0.29391	-96.879	-6.433	800.02
1051.10000	-1043.7	-3.8732	-0.29869	-96.674	-6.4933	799.99
1056.10000	-1048.2	-3.9271	-0.30355	-96.613	-6.5539	800.02
1061.10000	-1050.8	-3.9799	-0.30833	-96.398	-6.6134	799.97
1066.10000	-1053.4	-4.0313	-0.31301	-96.185	-6.6733	800.13
1071.10000	-1060	-4.0843	-0.31785	-96.321	-6.7333	800.02
1076.10000	-1065.7	-4.1374	-0.32273	-96.358	-6.7934	799.96
1081.10000	-1070.2	-4.192	-0.32776	-96.285	-6.8531	800
1086.10000	-1073.2	-4.2459	-0.33276	-96.071	-6.9128	799.84
1091.10000	-1075.4	-4.2967	-0.3375	-95.813	-6.9717	800.07
1096.10000	-1079.5	-4.3487	-0.34237	-95.713	-7.031	800
1101.10000	-1083.6	-4.402	-0.34739	-95.595	-7.0904	799.98
1106.10000	-1088.5	-4.4549	-0.35239	-95.551	-7.1496	799.97
1111.10000	-1091.2	-4.507	-0.35734	-95.315	-7.2093	800.05
1116.10000	-1096.8	-4.5593	-0.36233	-95.324	-7.2683	799.96
1121.10000	-1104.1	-4.6136	-0.36756	-95.459	-7.3283	799.87
1126.10000	-1108.9	-4.6684	-0.37285	-95.366	-7.3873	800
1131.10000	-1116.4	-4.7231	-0.37814	-95.502	-7.4472	800.05
1136.10000	-1119.8	-4.7752	-0.38323	-95.308	-7.5067	799.96
1141.10000	-1134.2	-4.8314	-0.38874	-96.001	-7.569	799.88
1146.10000	-1134.6	-4.8866	-0.39419	-95.515	-7.6303	800.01
1151.10000	-1136.8	-4.9393	-0.39942	-95.205	-7.6882	800.02
1156.10000	-1145.5	-4.9948	-0.40494	-95.405	-7.7502	800.03
1161.10000	-1150.2	-5.0493	-0.41041	-95.273	-7.8109	800.14
1166.10000	-1157.4	-5.1029	-0.41581	-95.356	-7.8697	799.99
1171.10000	-1164.8	-5.1561	-0.4212	-95.45	-7.9285	800.01
1176.10000	-1175.3	-5.2101	-0.42671	-95.78	-7.9884	799.9
1181.10000	-1183.4	-5.2661	-0.43244	-95.885	-8.0509	800.04
1186.10000	-1189.5	-5.3205	-0.43804	-95.845	-8.1106	800
1191.10000	-1199.1	-5.3724	-0.44342	-96.096	-8.1695	800.03
1196.10000	-1208.3	-5.4283	-0.44924	-96.276	-8.2321	799.99
1201.10000	-1212	-5.481	-0.45477	-96.039	-8.2922	800.02
1206.10000	-1221	-5.5337	-0.46031	-96.213	-8.3509	799.88
1211.10000	-1226.4	-5.5874	-0.466	-96.095	-8.4098	800.06
1216.10000	-1246.7	-5.6432	-0.47195	-97.103	-8.4721	799.94
1221.10000	-1246.4	-5.6991	-0.47794	-96.499	-8.5335	800.08
1226.10000	-1254.7	-5.7506	-0.48349	-96.606	-8.5922	799.77
1231.10000	-1273.6	-5.8066	-0.48957	-97.467	-8.6527	800.06
1236.10000	-1282.5	-5.8622	-0.49563	-97.552	-8.7135	799.96
1241.10000	-1287.4	-5.9157	-0.50151	-97.352	-8.7721	800
1246.10000	-1295.1	-5.9678	-0.50725	-97.373	-8.8314	800.01
1251.10000	-1310.2	-6.0227	-0.51336	-97.91	-8.8923	799.83
1256.10000	-1318.5	-6.079	-0.51964	-97.912	-8.9549	800.06
1261.10000	-1324.1	-6.1311	-0.52549	-97.755	-9.0126	800.14
1266.10000	-1336.2	-6.1843	-0.53152	-98.055	-9.0721	799.96
1271.10000	-1351.8	-6.2377	-0.5376	-98.595	-9.1325	800
1276.10000	-1360.2	-6.2922	-0.54384	-98.595	-9.1923	800.07
1281.10000	-1379.3	-6.3466	-0.5501	-99.352	-9.2508	799.99
1286.10000	-1390.2	-6.3997	-0.55626	-99.522	-9.309	799.94
1291.10000	-1399.6	-6.4515	-0.5623	-99.596	-9.3676	799.82
1296.10000	-1412.6	-6.504	-0.56845	-99.904	-9.4262	800.04
1301.10000	-1433.7	-6.5592	-0.57498	-100.73	-9.487	800.14
1306.10000	-1447	-6.6143	-0.58153	-101.01	-9.5472	799.95
1311.10000	-1455	-6.668	-0.58795	-100.91	-9.6048	800.1
1316.10000	-1476.1	-6.7204	-0.59425	-101.73	-9.6649	800.03
1321.10000	-1493.8	-6.775	-0.60088	-102.28	-9.7253	800.03
1326.10000	-1506.4	-6.8298	-0.60756	-102.45	-9.7855	799.95
1331.10000	-1525.9	-6.8826	-0.61404	-103.1	-9.8443	800
1336.10000	-1533.9	-6.9342	-0.62042	-102.99	-9.9024	799.95
1341.10000	-1559.8	-6.9879	-0.62709	-104.03	-9.9624	799.93
1346.10000	-1576.4	-7.0447	-0.63421	-104.39	-10.025	799.92
1351.10000	-1593.4	-7.0981	-0.64095	-104.81	-10.084	800.03
1356.10000	-1609.9	-7.1513	-0.6477	-105.18	-10.144	800
1361.10000	-1635.4	-7.2043	-0.65449	-106.12	-10.204	800.13
1366.10000	-1658.1	-7.2594	-0.66158	-106.84	-10.266	799.99
1371.10000	-1673	-7.3128	-0.66849	-107.05	-10.325	800.09
1376.10000	-1692.6	-7.3647	-0.67527	-107.58	-10.383	800.03
1381.10000	-1709.7	-7.4153	-0.68192	-107.94	-10.442	800.05
1386.10000	-1741.7	-7.4709	-0.68928	-109.16	-10.506	800.03
1391.10000	-1759.1	-7.5242	-0.69637	-109.47	-10.565	800.01
1396.10000	-1782.2	-7.5755	-0.70326	-110.14	-10.623	800.02
1401.10000	-1802.5	-7.6299	-0.71062	-110.58	-10.684	800.17
1406.10000	-1836.9	-7.6838	-0.71797	-111.87	-10.746	799.76
1411.10000	-1857.2	-7.7375	-0.72532	-112.27	-10.806	799.91
1416.10000	-1879.1	-7.7895	-0.73252	-112.78	-10.865	800.13
1421.10000	-1907.4	-7.842	-0.73982	-113.65	-10.924	800.03
1426.10000	-1927.2	-7.8936	-0.74707	-114	-10.984	800.03
1431.10000	-1960.5	-7.9469	-0.7546	-115.1	-11.045	799.95
1436.10000	-1988.2	-8.0006	-0.76223	-115.84	-11.105	800.01
1441.10000	-2024.4	-8.0545	-0.76997	-117.04	-11.166	799.97
1446.10000	-2043.1	-8.1067	-0.7775	-117.24	-11.226	800.03
1451.10000	-2074.9	-8.1575	-0.7849	-118.18	-11.285	799.9
1456.10000	-2103.7	-8.2085	-0.79239	-118.93	-11.343	800.21
1461.10000	-2143.5	-8.2615	-0.80022	-120.23	-11.404	800.11
1466.10000	-2172.1	-8.3153	-0.80823	-120.87	-11.464	799.84
1471.10000	-2190.3	-8.3649	-0.81567	-120.98	-11.523	799.89
1476.10000	-2225.3	-8.416	-0.82341	-121.96	-11.58	800
1481.10000	-2263.9	-8.4682	-0.83137	-123.09	-11.64	800.05
1486.10000	-2302.5	-8.524	-0.83996	-124.12	-11.701	799.99
1491.10000	-2322.5	-8.5766	-0.84809	-124.19	-11.76	800.02
1496.10000	-2355.9	-8.6268	-0.85594	-124.99	-11.818	799.97
1501.10000	-2394.4	-8.6786	-0.8641	-126	-11.876	799.93
1506.10000	-2424.1	-8.7303	-0.87232	-126.51	-11.935	799.96
1511.10000	-2472.8	-8.7836	-0.88086	-127.96	-11.996	800.05
1516.10000	-2497.8	-8.836	-0.88932	-128.16	-12.057	800.08
1521.10000	-2533.2	-8.8877	-0.89775	-128.89	-12.115	800.16
1526.10000	-2579	-8.939	-0.90618	-130.12	-12.174	799.53
1531.10000	-2603	-8.9915	-0.91488	-130.19	-12.233	800.05
1536.10000	-2652.9	-9.0462	-0.92402	-131.48	-12.295	800.13
1541.10000	-2677.6	-9.0988	-0.9329	-131.53	-12.356	799.94
1542.56390	-2699.9	-9.1289	-0.93801	-131.95	-12.389	799.57
1543.06390	-2553.6	-9.1316	-0.93846	-124.74	-12.386	779.58
1543.56390	-2409.1	-9.131	-0.93837	-117.69	-12.381	755.24
1544.06390	-2246.9	-9.1282	-0.93789	-109.82	-12.374	732.85
1544.56390	-2095.9	-9.1254	-0.93741	-102.49	-12.367	714.1
1545.06390	-1943.4	-9.1216	-0.93676	-95.098	-12.359	697.11
1545.56390	-1819	-9.1195	-0.9364	-89.04	-12.353	682.83
1546.06390	-1687.2	-9.1171	-0.93598	-82.621	-12.346	669.7
1546.56390	-1549.7	-9.114	-0.93548	-75.929	-12.338	657.87
1547.06390	-1425.1	-9.1116	-0.93505	-69.854	-12.331	646.91
1547.56390	-1291.8	-9.108	-0.93446	-63.355	-12.323	636.75
1548.06390	-1166.5	-9.1049	-0.93392	-57.246	-12.315	627.02
1548.56390	-1059.8	-9.1026	-0.93353	-52.029	-12.307	618.1
1549.06390	-945.24	-9.0991	-0.93294	-46.428	-12.299	609.39
1549.56390	-841.87	-9.0957	-0.93237	-41.379	-12.292	601.21
1550.06390	-751.84	-9.093	-0.93191	-36.97	-12.285	593.28
1550.56390	-678.7	-9.0911	-0.93158	-33.381	-12.28	586.04
1551.06390	-593.4	-9.0874	-0.93096	-29.206	-12.272	579.2
1551.56390	-513.41	-9.0841	-0.93041	-25.283	-12.265	573.02
1552.06390	-441.96	-9.0807	-0.92983	-21.777	-12.258	567.39
1552.56390	-364.38	-9.0758	-0.929	-17.97	-12.249	562.18
1553.06390	-302.41	-9.0716	-0.9283	-14.925	-12.241	557.94
1553.56390	-242.34	-9.0672	-0.92756	-11.968	-12.232	554.78
1554.06390	-201.41	-9.0646	-0.92712	-9.9506	-12.225	552.22
1554.56390	-163.54	-9.0615	-0.92659	-8.0853	-12.218	550.7
1555.06390	-134.87	-9.0589	-0.92616	-6.672	-12.211	549.85
1555.56390	-108.31	-9.0562	-0.92571	-5.3575	-12.204	549.2
1556.06390	-85.741	-9.0537	-0.92528	-4.2452	-12.194	548.91
1556.56390	-77.639	-9.054	-0.92533	-3.8429	-12.186	547.52
1557.06390	-75.585	-9.0548	-0.92547	-3.7412	-12.174	545.02
1557.56390	-74.954	-9.0553	-0.92555	-3.7094	-12.166	541.2
1558.06390	-74.235	-9.0557	-0.92562	-3.6738	-12.155	536.08
1558.56390	-73.048	-9.0563	-0.92571	-3.6131	-12.149	529.96
1559.06390	-70.901	-9.0568	-0.9258	-3.5088	-12.139	523.13
1559.56390	-68.56	-9.0574	-0.9259	-3.3927	-12.131	516.06
1560.06390	-66.003	-9.0579	-0.92599	-3.2657	-12.122	508.72
1560.56390	-63.425	-9.0587	-0.92613	-3.1377	-12.113	501.54
1561.06390	-61.838	-9.0596	-0.92627	-3.058	-12.104	494.48
1561.56390	-59.874	-9.0606	-0.92646	-2.9617	-12.096	487.44
1562.06390	-58.245	-9.0619	-0.92667	-2.8798	-12.086	480.99
1562.56390	-57.146	-9.063	-0.92685	-2.8227	-12.078	474.48
1563.06390	-56.069	-9.0639	-0.92701	-2.7717	-12.069	468.23
1563.56390	-55.551	-9.0647	-0.92713	-2.7458	-12.06	462.05
1564.06390	-55.139	-9.0653	-0.92724	-2.7247	-12.052	456.24
1564.56390	-54.634	-9.0659	-0.92734	-2.6992	-12.044	450.49
1565.06390	-54.491	-9.0664	-0.92743	-2.6925	-12.033	444.8
1565.56390	-55.358	-9.0666	-0.92745	-2.7356	-12.026	439.18
1566.06390	-55.132	-9.0668	-0.9275	-2.7243	-12.017	433.82
1566.56390	-55.145	-9.0671	-0.92753	-2.7247	-12.008	428.58
1567.06390	-55.022	-9.0675	-0.92761	-2.7162	-12.001	423.4
1567.56390	-54.805	-9.0678	-0.92765	-2.7044	-11.99	418.37
1568.06390	-54.733	-9.0677	-0.92763	-2.7021	-11.981	413.4
1568.56390	-54.553	-9.0677	-0.92763	-2.6943	-11.974	408.35
1569.06390	-54.594	-9.0676	-0.92763	-2.6961	-11.965	403.7
1569.56390	-54.675	-9.0677	-0.92764	-2.7002	-11.955	399.03
1570.06390	-54.512	-9.0676	-0.92762	-2.6904	-11.948	394.52
1570.56390	-54.673	-9.0676	-0.92762	-2.7	-11.936	389.87
1571.06390	-54.685	-9.0678	-0.92764	-2.703	-11.929	385.34
1571.56390	-54.582	-9.0679	-0.92766	-2.6953	-11.92	380.92
1572.06390	-54.868	-9.068	-0.92769	-2.7083	-11.91	376.7
1572.56390	-54.532	-9.0681	-0.92769	-2.6948	-11.902	372.4
1573.06390	-54.64	-9.0683	-0.92773	-2.6967	-11.894	368.26
1573.56390	-54.721	-9.0684	-0.92776	-2.7047	-11.886	363.88
1574.06390	-54.454	-9.0686	-0.92779	-2.6909	-11.876	359.59
1574.56390	-54.561	-9.0686	-0.92779	-2.6939	-11.868	355.29
1575.06390	-54.704	-9.0688	-0.92782	-2.7047	-11.86	351.21
1575.56390	-54.641	-9.0689	-0.92784	-2.6951	-11.851	347.19
1576.06390	-54.846	-9.0691	-0.92787	-2.707	-11.842	343.22
1576.56390	-54.835	-9.0692	-0.92789	-2.7104	-11.834	339.21
1577.06390	-54.779	-9.0694	-0.92792	-2.702	-11.823	335.54
1577.56390	-54.921	-9.0695	-0.92794	-2.7089	-11.816	331.72
1578.06390	-54.736	-9.0696	-0.92795	-2.7032	-11.807	328.16
1578.56390	-54.909	-9.0698	-0.92799	-2.7099	-11.797	324.46
1579.06390	-54.843	-9.07	-0.92802	-2.7079	-11.79	320.84
1579.56390	-54.845	-9.0702	-0.92806	-2.7055	-11.781	317.34
1580.06390	-55.039	-9.0703	-0.92807	-2.7148	-11.773	313.91
1580.56390	-54.835	-9.0704	-0.9281	-2.7087	-11.763	310.37
1581.06390	-54.914	-9.0705	-0.92812	-2.7106	-11.755	306.99
1581.56390	-55.123	-9.0707	-0.92815	-2.7221	-11.747	303.8
1582.06390	-54.892	-9.0707	-0.92815	-2.7131	-11.737	300.56
1582.56390	-54.897	-9.0709	-0.92818	-2.7099	-11.727	297.45
1583.06390	-54.977	-9.0711	-0.92822	-2.7166	-11.72	294.19
1583.56390	-54.801	-9.0712	-0.92823	-2.7054	-11.711	291.06
1584.06390	-55.133	-9.0712	-0.92824	-2.7202	-11.703	288.22
1584.56390	-55.01	-9.0714	-0.92826	-2.7174	-11.692	284.93
1585.06390	-55.137	-9.0715	-0.92828	-2.7198	-11.685	282.03
1585.56390	-55.262	-9.0716	-0.9283	-2.7285	-11.676	279.06
1586.06390	-55.056	-9.0717	-0.92832	-2.7184	-11.668	276.29
1586.56390	-55.345	-9.0718	-0.92834	-2.7299	-11.658	273.59
1587.06390	-55.335	-9.0719	-0.92835	-2.7318	-11.651	270.82
1587.56390	-55.175	-9.0721	-0.92839	-2.7245	-11.642	267.98
1588.06390	-55.365	-9.0722	-0.92839	-2.7327	-11.632	265.45
1588.56390	-55.142	-9.0723	-0.92842	-2.7233	-11.624	262.74
1589.06390	-55.179	-9.0724	-0.92843	-2.7212	-11.615	260.13
1589.56390	-55.358	-9.0725	-0.92844	-2.7331	-11.606	257.49
1590.06390	-55.23	-9.0726	-0.92848	-2.7277	-11.598	255.09
1590.56390	-55.301	-9.0727	-0.92849	-2.7272	-11.588	252.56
1591.06390	-55.279	-9.0728	-0.92851	-2.7284	-11.58	250.12
1591.56390	-55.12	-9.0729	-0.92852	-2.7192	-11.571	247.7
1592.06390	-55.285	-9.073	-0.92852	-2.7295	-11.562	245.1
1592.56390	-55.149	-9.073	-0.92853	-2.7224	-11.553	242.87
1593.06390	-55.245	-9.073	-0.92853	-2.7245	-11.545	240.52
1593.56390	-55.31	-9.0731	-0.92853	-2.7307	-11.536	238.19
1594.06390	-55.015	-9.0731	-0.92855	-2.7156	-11.528	235.87
1594.56390	-55.079	-9.0732	-0.92857	-2.7172	-11.519	233.57
1595.06390	-55.175	-9.0733	-0.92858	-2.7245	-11.511	231.42
1595.56390	-55.048	-9.0733	-0.92857	-2.7151	-11.501	229.21
1596.06390	-55.184	-9.0733	-0.92857	-2.723	-11.491	227.07
1596.56390	-54.977	-9.0734	-0.92859	-2.7135	-11.483	224.92
1597.06390	-55.077	-9.0735	-0.9286	-2.7145	-11.475	222.87
1597.56390	-55.031	-9.0735	-0.9286	-2.7176	-11.466	220.74
1598.06390	-54.758	-9.0735	-0.92861	-2.7015	-11.459	218.7
1598.56390	-54.975	-9.0736	-0.92863	-2.7121	-11.45	216.7
1599.06390	-54.807	-9.0737	-0.92864	-2.7054	-11.441	214.61
1599.56390	-54.737	-9.0737	-0.92864	-2.7006	-11.432	212.67
1600.06390	-54.714	-9.0738	-0.92866	-2.7016	-11.422	210.66
1600.56390	-54.602	-9.0737	-0.92865	-2.6921	-11.414	208.83
1601.06390	-54.631	-9.0738	-0.92866	-2.6931	-11.406	206.9
1601.56390	-54.625	-9.0738	-0.92866	-2.6958	-11.397	204.98
1602.06390	-54.431	-9.0739	-0.92868	-2.6835	-11.388	203.22
1602.56390	-54.565	-9.0739	-0.92868	-2.6922	-11.379	201.28
1603.06390	-54.346	-9.0739	-0.92868	-2.6834	-11.371	199.4
1603.56390	-54.339	-9.0739	-0.92867	-2.6785	-11.362	197.6
1604.06390	-54.347	-9.0739	-0.92868	-2.6816	-11.354	195.81
1604.56390	-54.138	-9.0738	-0.92867	-2.6683	-11.344	194.02
1605.06390	-54.205	-9.0739	-0.92868	-2.6708	-11.336	192.34
1605.56390	-54.029	-9.0739	-0.92868	-2.6674	-11.329	190.53
1606.06390	-53.986	-9.0739	-0.92869	-2.6624	-11.319	188.84
1606.56390	-54.004	-9.0739	-0.92868	-2.6639	-11.31	187.11
1607.06390	-53.781	-9.0739	-0.92869	-2.6535	-11.301	185.43
1607.56390	-53.94	-9.074	-0.9287	-2.6601	-11.292	183.73
1608.06390	-53.801	-9.0739	-0.92869	-2.6564	-11.283	182.11
1608.56390	-53.432	-9.0739	-0.92869	-2.6348	-11.275	180.5
1609.06390	-53.565	-9.0739	-0.92868	-2.6411	-11.266	178.91
1609.56390	-53.443	-9.0739	-0.92869	-2.6396	-11.257	177.36
1610.06390	-53.41	-9.0739	-0.92868	-2.6338	-11.249	175.73
1610.56390	-53.419	-9.0738	-0.92867	-2.638	-11.241	174.24
1611.06390	-53.203	-9.0739	-0.92869	-2.6249	-11.231	172.67
1611.56390	-53.269	-9.0738	-0.92868	-2.6268	-11.221	171.07
1612.06390	-53.091	-9.0738	-0.92867	-2.6206	-11.213	169.59
1612.56390	-53.09	-9.0738	-0.92868	-2.6166	-11.203	168.09
1613.06390	-53.059	-9.0738	-0.92868	-2.6186	-11.196	166.61
1613.56390	-52.817	-9.0739	-0.92868	-2.6063	-11.188	165.16
1614.06390	-52.846	-9.0738	-0.92867	-2.604	-11.177	163.61
1614.56390	-52.795	-9.0738	-0.92867	-2.6084	-11.17	162.28
1615.06390	-52.623	-9.0738	-0.92866	-2.5965	-11.161	160.85
1615.56390	-52.762	-9.0738	-0.92867	-2.6018	-11.152	159.49
1616.06390	-52.588	-9.0737	-0.92865	-2.5975	-11.143	158.09
1616.56390	-52.45	-9.0737	-0.92866	-2.587	-11.133	156.75
1617.06390	-52.44	-9.0738	-0.92867	-2.5883	-11.125	155.41
1617.56390	-52.266	-9.0738	-0.92866	-2.5788	-11.117	153.93
1618.06390	-52.306	-9.0737	-0.92865	-2.5786	-11.109	152.67
1618.56390	-52.091	-9.0737	-0.92865	-2.5714	-11.099	151.26
1619.06390	-52.015	-9.0738	-0.92865	-2.5646	-11.091	150.22
1619.56390	-52.12	-9.0737	-0.92864	-2.5731	-11.082	148.96
1620.06390	-51.821	-9.0737	-0.92864	-2.5559	-11.074	147.51
1620.56390	-51.821	-9.0736	-0.92864	-2.5564	-11.064	146.45
1621.06390	-51.914	-9.0736	-0.92863	-2.5638	-11.057	145.06
1621.56390	-51.652	-9.0736	-0.92863	-2.5483	-11.048	143.96
1622.06390	-51.678	-9.0736	-0.92863	-2.5472	-11.038	142.63
1622.56390	-51.464	-9.0736	-0.92862	-2.5413	-11.03	141.59
1623.06390	-51.5	-9.0735	-0.92862	-2.5403	-11.021	140.4
1623.56390	-51.445	-9.0736	-0.92862	-2.537	-11.012	139.17
1624.06390	-51.14	-9.0735	-0.92861	-2.5252	-11.004	137.99
1624.56390	-51.289	-9.0734	-0.9286	-2.5304	-10.995	136.82
1625.06390	-51.048	-9.0734	-0.9286	-2.5228	-10.985	135.7
1625.56390	-50.919	-9.0735	-0.9286	-2.5104	-10.977	134.59
1626.06390	-50.933	-9.0734	-0.9286	-2.514	-10.967	133.48
1626.56390	-50.691	-9.0734	-0.9286	-2.5015	-10.96	132.39
1627.06390	-50.763	-9.0734	-0.9286	-2.501	-10.95	131.31
1627.56390	-50.588	-9.0734	-0.9286	-2.4944	-10.941	130.24
1628.06390	-50.524	-9.0734	-0.92859	-2.4922	-10.933	129.23
1628.56390	-50.547	-9.0734	-0.92859	-2.4932	-10.924	128.19
1629.06390	-50.308	-9.0734	-0.92859	-2.4859	-10.915	127.16
1629.56390	-50.232	-9.0734	-0.92859	-2.4789	-10.908	126.17
1630.06390	-50.187	-9.0734	-0.92859	-2.4775	-10.898	125.16
1630.56390	-50	-9.0734	-0.92859	-2.4676	-10.891	124.13
1631.06390	-50.067	-9.0734	-0.92859	-2.4686	-10.88	122.99
1631.56390	-49.823	-9.0734	-0.9286	-2.4619	-10.872	121.36
1632.06390	-49.839	-9.0734	-0.9286	-2.4576	-10.863	119.92
1632.56390	-49.76	-9.0733	-0.9286	-2.4561	-10.856	118.47
1633.06390	-49.64	-9.0733	-0.92859	-2.4511	-10.845	117.18
1633.56390	-49.583	-9.0733	-0.92858	-2.4441	-10.836	115.93
1634.06390	-49.518	-9.0733	-0.92859	-2.444	-10.827	114.84
1634.56390	-49.326	-9.0732	-0.92857	-2.4327	-10.819	113.68
1635.06390	-49.257	-9.0733	-0.92858	-2.4306	-10.811	112.5
1635.56390	-49.14	-9.0733	-0.92859	-2.4279	-10.801	111.47
1636.06390	-48.953	-9.0733	-0.92859	-2.4145	-10.792	110.51
1636.56390	-49.125	-9.0732	-0.92857	-2.4247	-10.784	109.57
1637.06390	-48.692	-9.0732	-0.92858	-2.4042	-10.777	108.62
1637.56390	-48.709	-9.0732	-0.92857	-2.4016	-10.77	107.71
1638.06390	-48.672	-9.0732	-0.92857	-2.4032	-10.76	106.77
1638.56390	-48.494	-9.0731	-0.92856	-2.3906	-10.75	105.9
1639.06390	-48.577	-9.0732	-0.92856	-2.3946	-10.742	105.07
1639.56390	-48.243	-9.0731	-0.92856	-2.3831	-10.734	104.27
1640.06390	-48.308	-9.0731	-0.92856	-2.3829	-10.724	103.42
1640.56390	-48.181	-9.0731	-0.92855	-2.3782	-10.715	102.68
1641.06390	-47.845	-9.0731	-0.92856	-2.3622	-10.705	101.9
1641.56390	-47.925	-9.0731	-0.92855	-2.3631	-10.696	101.11
1642.06390	-47.835	-9.0732	-0.92856	-2.3613	-10.69	100.37
1642.56390	-47.61	-9.0731	-0.92855	-2.3506	-10.68	99.618
1643.06390	-47.658	-9.0731	-0.92855	-2.3483	-10.673	98.854
1643.56390	-47.546	-9.073	-0.92853	-2.3461	-10.664	98.148
1644.06390	-47.493	-9.073	-0.92854	-2.3418	-10.654	97.425
1644.56390	-47.339	-9.073	-0.92852	-2.3358	-10.647	96.746
1645.06390	-47.099	-9.073	-0.92851	-2.3243	-10.638	96.058
1645.56390	-47.159	-9.0729	-0.92852	-2.3235	-10.629	95.424
1646.06390	-46.846	-9.073	-0.92853	-2.3163	-10.621	94.69
1646.56390	-46.724	-9.073	-0.92852	-2.3044	-10.612	93.964
1647.06390	-46.902	-9.073	-0.92852	-2.3144	-10.603	93.391
1647.56390	-46.624	-9.073	-0.92852	-2.2994	-10.594	92.724
1648.06390	-46.5	-9.073	-0.92852	-2.2908	-10.585	92.114
1648.56390	-46.612	-9.073	-0.92852	-2.298	-10.575	91.427
1649.06390	-46.185	-9.073	-0.92853	-2.2823	-10.566	90.722
1649.56390	-46.24	-9.073	-0.92852	-2.2814	-10.56	90.123
1650.06390	-46.126	-9.073	-0.92852	-2.2794	-10.55	89.537
1650.56390	-45.979	-9.073	-0.92852	-2.2663	-10.543	88.927
1651.06390	-45.943	-9.073	-0.92852	-2.2669	-10.531	88.355
1651.56390	-45.692	-9.073	-0.92853	-2.2546	-10.523	87.763
1652.06390	-45.649	-9.073	-0.92852	-2.2519	-10.514	87.199
1652.56390	-45.686	-9.073	-0.92852	-2.2543	-10.505	86.684
1653.06390	-45.374	-9.073	-0.92853	-2.2407	-10.499	86.076
1653.56390	-45.357	-9.073	-0.92852	-2.2365	-10.488	85.583
1654.06390	-45.263	-9.073	-0.92852	-2.2341	-10.478	85.064
1654.56390	-44.95	-9.073	-0.92853	-2.2176	-10.47	84.498
1655.06390	-44.943	-9.073	-0.92852	-2.2172	-10.461	84
1655.56390	-44.919	-9.073	-0.92853	-2.2174	-10.452	83.481
1656.06390	-44.725	-9.073	-0.92852	-2.2037	-10.444	82.977
1656.56390	-44.791	-9.073	-0.92853	-2.2083	-10.436	82.497
1657.06390	-44.5	-9.073	-0.92853	-2.1959	-10.427	82.036
1657.56390	-44.482	-9.073	-0.92853	-2.1921	-10.417	81.534
1658.06390	-44.327	-9.073	-0.92853	-2.1879	-10.408	80.993
1658.56390	-44.166	-9.073	-0.92852	-2.1796	-10.399	80.629
1659.06390	-44.128	-9.073	-0.92853	-2.1771	-10.39	80.126
1659.56390	-43.935	-9.0729	-0.92852	-2.1686	-10.381	79.672
1660.06390	-43.777	-9.0729	-0.92851	-2.1599	-10.373	79.156
1660.56390	-43.799	-9.0729	-0.92851	-2.1612	-10.365	78.694
1661.06390	-43.514	-9.0729	-0.92852	-2.1507	-10.357	78.092
1661.56390	-43.491	-9.0729	-0.92852	-2.1424	-10.346	77.764
1662.06390	-43.408	-9.0729	-0.92853	-2.1416	-10.336	77.253
1662.56390	-43.142	-9.0729	-0.92853	-2.1311	-10.328	76.663
1663.06390	-43.136	-9.0729	-0.92853	-2.128	-10.319	76.384
1663.56390	-43.074	-9.073	-0.92853	-2.126	-10.31	75.848
1664.06390	-42.864	-9.0729	-0.92853	-2.1149	-10.302	75.485
1664.56390	-42.932	-9.0729	-0.92853	-2.1156	-10.294	74.99
1665.06390	-42.618	-9.0729	-0.92852	-2.1049	-10.285	74.5
1665.56390	-42.507	-9.0729	-0.92853	-2.0977	-10.276	74.067
1666.06390	-42.64	-9.073	-0.92853	-2.1046	-10.267	73.665
1666.56390	-42.664	-9.0731	-0.92855	-2.1044	-10.258	73.244
1667.06390	-42.65	-9.0734	-0.9286	-2.1029	-10.249	72.824
1667.56390	-42.503	-9.0736	-0.92863	-2.1002	-10.241	72.434
1668.06390	-42.438	-9.0736	-0.92865	-2.0934	-10.231	72.078
1668.56390	-42.429	-9.0738	-0.92868	-2.0911	-10.224	71.687
1669.06390	-42.27	-9.074	-0.9287	-2.0872	-10.214	71.275
1669.56390	-42.133	-9.0741	-0.92871	-2.0776	-10.206	70.907
1670.06390	-42.068	-9.0743	-0.92874	-2.075	-10.195	70.561
1670.56390	-41.869	-9.0744	-0.92876	-2.0656	-10.186	70.181
1671.06390	-41.922	-9.0745	-0.92879	-2.0644	-10.178	69.846
1671.56390	-41.869	-9.0746	-0.9288	-2.0672	-10.169	69.422
1672.06390	-41.677	-9.0746	-0.92881	-2.0539	-10.16	69.076
1672.56390	-41.639	-9.0747	-0.92882	-2.05	-10.151	68.716
1673.06390	-41.408	-9.0748	-0.92883	-2.0462	-10.142	68.275
1673.56390	-41.301	-9.0749	-0.92884	-2.0351	-10.135	68.057
1674.06390	-41.411	-9.075	-0.92886	-2.0433	-10.125	67.668
1674.56390	-41.011	-9.0751	-0.92887	-2.0248	-10.116	67.285
1675.06390	-41.103	-9.075	-0.92886	-2.0245	-10.107	67.103
1675.56390	-40.975	-9.075	-0.92887	-2.0251	-10.098	66.729
1676.06390	-40.739	-9.0751	-0.92889	-2.0087	-10.09	66.267
1676.56390	-40.834	-9.0752	-0.92889	-2.0123	-10.081	65.957
1677.06390	-40.582	-9.0753	-0.92891	-2.0041	-10.071	65.661
1677.56390	-40.394	-9.0753	-0.9289	-1.99	-10.065	65.315
1678.06390	-40.441	-9.0753	-0.92891	-1.9934	-10.056	65.039
1678.56390	-40.237	-9.0753	-0.92891	-1.9836	-10.048	64.748
1679.06390	-40.09	-9.0754	-0.92894	-1.9766	-10.04	64.49
1679.56390	-39.94	-9.0754	-0.92894	-1.9732	-10.033	64.185
1680.06390	-39.715	-9.0754	-0.92894	-1.9594	-10.023	63.879
1680.56390	-39.773	-9.0754	-0.92894	-1.9615	-10.014	63.597
1681.06390	-39.634	-9.0755	-0.92894	-1.957	-10.005	63.369
1681.56390	-39.423	-9.0755	-0.92895	-1.94	-9.9976	63.108
1682.06390	-39.516	-9.0756	-0.92897	-1.9467	-9.9879	62.822
1682.56390	-39.168	-9.0756	-0.92896	-1.9324	-9.9791	62.556
1683.06390	-39.161	-9.0756	-0.92897	-1.9304	-9.9708	62.315
1683.56390	-39.031	-9.0756	-0.92898	-1.9258	-9.961	62.046
1684.06390	-38.903	-9.0756	-0.92898	-1.919	-9.9533	61.745
1684.56390	-38.817	-9.0757	-0.92899	-1.911	-9.9454	61.509
1685.06390	-38.59	-9.0757	-0.92898	-1.9045	-9.9355	61.264
1685.56390	-38.455	-9.0757	-0.92899	-1.897	-9.9263	61.028
1686.06390	-38.498	-9.0758	-0.929	-1.899	-9.917	60.735
1686.56390	-38.183	-9.0757	-0.929	-1.8848	-9.9063	60.52
1687.06390	-38.032	-9.0758	-0.92901	-1.8747	-9.8971	60.283
1687.56390	-38.016	-9.0758	-0.929	-1.8745	-9.8894	59.971
1688.06390	-37.781	-9.0758	-0.92901	-1.863	-9.8811	59.749
1688.56390	-37.775	-9.0758	-0.92901	-1.8622	-9.8732	59.565
1689.06390	-37.763	-9.0759	-0.92902	-1.8641	-9.8629	59.178
1689.56390	-37.499	-9.0759	-0.92902	-1.848	-9.8535	58.972
1690.06390	-37.505	-9.0759	-0.92902	-1.8484	-9.845	58.655
1690.56390	-37.23	-9.076	-0.92903	-1.8374	-9.8352	58.472
1691.06390	-37.191	-9.0759	-0.92904	-1.8341	-9.8249	58.319
1691.56390	-37.059	-9.0759	-0.92903	-1.8282	-9.8175	57.986
1692.06390	-36.821	-9.076	-0.92904	-1.816	-9.8092	57.843
1692.56390	-36.827	-9.076	-0.92905	-1.8154	-9.7999	57.539
1693.06390	-36.766	-9.0761	-0.92905	-1.8131	-9.7904	57.329
1693.56390	-36.474	-9.076	-0.92904	-1.7971	-9.783	57.11
1694.06390	-36.457	-9.0761	-0.92905	-1.7987	-9.7745	56.892
1694.56390	-36.291	-9.0761	-0.92905	-1.7912	-9.7648	56.669
1695.06390	-36.068	-9.0761	-0.92905	-1.7776	-9.7567	56.46
1695.56390	-36.246	-9.0761	-0.92906	-1.7868	-9.7471	56.265
1696.06390	-35.885	-9.0761	-0.92905	-1.7681	-9.7373	56.068
1696.56390	-35.902	-9.0762	-0.92907	-1.7682	-9.7292	55.867
1697.06390	-35.744	-9.0762	-0.92906	-1.765	-9.7236	55.684
1697.56390	-35.447	-9.0761	-0.92906	-1.7477	-9.7128	55.473
1698.06390	-35.532	-9.0763	-0.92908	-1.7521	-9.7059	55.253
1698.56390	-35.254	-9.0762	-0.92906	-1.7409	-9.6974	55.064
1699.06390	-35.109	-9.0763	-0.92908	-1.7307	-9.6896	54.911
1699.56390	-35.111	-9.0763	-0.92909	-1.7305	-9.6812	54.717
1700.06390	-34.84	-9.0763	-0.92909	-1.7191	-9.6709	54.503
1700.56390	-34.846	-9.0763	-0.92907	-1.7183	-9.6618	54.327
1701.06390	-34.783	-9.0764	-0.9291	-1.7169	-9.6529	54.155
1701.56390	-34.428	-9.0763	-0.92909	-1.6982	-9.6455	53.998
1702.06390	-34.409	-9.0763	-0.92908	-1.6965	-9.6369	53.74
1702.56390	-34.187	-9.0764	-0.92909	-1.6871	-9.6283	53.531
