Time(sec)	Force(kgf)	LGauge(mm)	Strain	Stress(MPa)	Stroke(mm)	TC1(C)
0.00000	-160.67	-0.00015058	-1.3284e-05	-20.073	-0.015771	23.075
1.00000	-160.61	-0.00045253	-2.8228e-05	-20.05	-0.014822	23.246
2.00000	-160.66	-0.00050767	-3.3304e-05	-20.057	-0.015597	23.19
3.00000	-160.78	-0.00059758	-4.023e-05	-20.072	-0.016441	23.256
4.00000	-160.83	-0.0006242	-4.1029e-05	-20.084	-0.01774	23.232
5.00000	-161.08	-0.0005928	-3.9273e-05	-20.118	-0.018755	23.308
6.00000	-165.22	-0.0006593	-4.2499e-05	-20.633	-0.019479	23.565
7.00000	-173.27	-0.0011326	-7.6287e-05	-21.629	-0.020178	26.647
8.00000	-182.97	-0.0014297	-9.3342e-05	-22.84	-0.020215	34.74
9.00000	-183.53	-0.0016453	-0.0001078	-22.913	-0.020202	44.888
10.00000	-176.57	-0.0014316	-9.2895e-05	-22.046	-0.020042	51.789
11.00000	-176.26	-0.001483	-9.707e-05	-22.012	-0.019398	54.124
12.00000	-188.37	-0.001773	-0.0001146	-23.517	-0.018955	55.625
13.00000	-193.44	-0.0008586	-5.3863e-05	-24.146	-0.01825	59.67
14.00000	-196.54	0.00022435	1.7093e-05	-24.534	-0.017758	67.406
15.00000	-195.13	0.00033902	2.5474e-05	-24.365	-0.017457	75.605
15.57860	-192.71	0.00031345	2.3221e-05	-24.064	-0.017325	78.879
16.57860	-193.81	0.00028855	2.3274e-05	-24.197	-0.016767	81.982
16.58940	-193.89	0.00028907	2.2906e-05	-24.207	-0.016739	82.004
17.58940	-200.66	0.0007904	5.6654e-05	-25.053	-0.016143	84.208
18.58940	-201.66	0.0035725	0.00023981	-25.184	-0.015841	88.445
19.58940	-202.35	0.0059297	0.00039719	-25.272	-0.015123	95.544
20.58940	-202.52	0.0064414	0.00043109	-25.298	-0.014799	103.07
21.58940	-201.04	0.0064919	0.00043441	-25.117	-0.0144	108.27
22.58940	-204.8	0.0066585	0.00044244	-25.589	-0.014457	110.92
23.58940	-203.95	0.010028	0.00066834	-25.486	-0.01389	113.81
24.58940	-204.11	0.013543	0.00090169	-25.513	-0.013634	119.39
25.58940	-204.79	0.015051	0.0010027	-25.592	-0.013658	126.71
26.58940	-203.96	0.015293	0.0010192	-25.496	-0.013478	133.25
27.58940	-206.41	0.015367	0.0010235	-25.8	-0.013581	137
28.58940	-206.12	0.017593	0.0011723	-25.771	-0.013656	139.81
29.58940	-205.7	0.021459	0.0014292	-25.723	-0.013698	143.88
30.58940	-206.25	0.02457	0.0016381	-25.794	-0.013602	150.52
31.58940	-206.87	0.025761	0.0017148	-25.873	-0.01368	157.53
32.58940	-206.62	0.025844	0.0017211	-25.85	-0.013802	163.03
33.58940	-208.47	0.026365	0.001758	-26.08	-0.014081	166.37
34.58940	-207.52	0.030021	0.0020019	-25.966	-0.014275	169.19
35.58940	-207.01	0.034255	0.0022836	-25.912	-0.014301	174.09
36.58940	-207.45	0.037227	0.0024806	-25.968	-0.014447	181.06
37.58940	-207.59	0.037862	0.0025229	-25.982	-0.014513	188.16
38.58940	-208.1	0.037966	0.0025303	-26.046	-0.014476	192.76
39.58940	-208.84	0.039519	0.002634	-26.146	-0.014499	195.65
40.58940	-207.95	0.043868	0.0029246	-26.038	-0.014904	198.92
41.58940	-207.69	0.048289	0.0032178	-26.01	-0.015177	204.27
42.58940	-208.11	0.050734	0.0033809	-26.069	-0.01535	211.75
43.58940	-207.25	0.051069	0.0034012	-25.967	-0.015661	218.57
44.58940	-208.14	0.05119	0.0034091	-26.072	-0.01603	222.59
45.58940	-209.47	0.053372	0.0035525	-26.242	-0.016158	224.96
46.58940	-208.25	0.05843	0.0038887	-26.11	-0.016531	228.44
47.58940	-207.87	0.063262	0.004209	-26.068	-0.016971	234.63
48.58940	-208.39	0.065281	0.004342	-26.141	-0.017306	242.51
49.58940	-206.51	0.065483	0.0043556	-25.904	-0.017605	248.73
50.58940	-208.03	0.065645	0.0043653	-26.089	-0.017773	252.25
51.58940	-209.58	0.068557	0.0045606	-26.283	-0.017385	254.1
52.58940	-208.84	0.074642	0.0049633	-26.206	-0.017007	258
53.58940	-208.48	0.079584	0.0052899	-26.178	-0.016556	264.99
54.58940	-208.64	0.081097	0.0053912	-26.2	-0.017357	273.04
55.58940	-203.98	0.081263	0.0054008	-25.617	-0.018323	279.22
56.49540	-205.08	0.081346	0.0054067	-25.749	-0.018901	281.94
57.49540	-210	0.08345	0.0055467	-26.366	-0.018886	283.75
58.49540	-209.34	0.089984	0.0059798	-26.298	-0.018922	287.33
59.49540	-208.84	0.095264	0.0063293	-26.246	-0.019437	294.25
60.49540	-209.06	0.097322	0.0064694	-26.278	-0.020013	302.38
60.93700	-207.62	0.097408	0.0064726	-26.097	-0.020066	305.73
61.93700	-201.24	0.097431	0.0064756	-25.293	-0.020466	310.94
62.93700	-207.55	0.097574	0.0064859	-26.082	-0.021181	313.02
63.93700	-210.27	0.10186	0.0067697	-26.429	-0.021218	315.08
64.93700	-209.25	0.10849	0.0072097	-26.322	-0.0203	319.9
65.93700	-209.25	0.11296	0.0075055	-26.326	-0.020045	327.41
66.93700	-208.9	0.1138	0.0075617	-26.287	-0.019316	335.23
67.93700	-204.54	0.11392	0.0075682	-25.736	-0.020454	340.71
68.93700	-208.61	0.11403	0.0075762	-26.245	-0.021576	343.39
69.93700	-211.04	0.11746	0.0078016	-26.556	-0.021823	345.47
70.93700	-209.9	0.12428	0.0082519	-26.426	-0.02208	349.68
71.93700	-209.7	0.12946	0.0085949	-26.407	-0.022329	356.92
72.93700	-210.19	0.13095	0.0086945	-26.475	-0.022352	364.85
73.93700	-205.84	0.13102	0.0086973	-25.929	-0.02231	370.96
74.93700	-205.73	0.13104	0.0086981	-25.915	-0.022474	374.22
75.93700	-211.74	0.13333	0.0088505	-26.671	-0.022493	376.18
76.93700	-210.87	0.13991	0.0092824	-26.58	-0.022651	379.65
77.93700	-210.39	0.14587	0.0096769	-26.531	-0.022295	385.96
78.93700	-211	0.1483	0.0098354	-26.611	-0.022222	394.07
79.93700	-207.82	0.14842	0.0098448	-26.209	-0.022315	400.82
80.93700	-204.47	0.14845	0.009846	-25.79	-0.021754	404.96
81.93700	-212.12	0.14927	0.0099023	-26.753	-0.021476	407.1
82.93700	-211.39	0.15499	0.010279	-26.671	-0.02063	409.9
83.93700	-210.96	0.16128	0.010694	-26.621	-0.020337	415.35
84.93700	-211.15	0.16507	0.010947	-26.651	-0.021569	422.93
85.93700	-210.52	0.16579	0.010995	-26.577	-0.021826	430.16
86.93700	-205.97	0.16591	0.011001	-26.003	-0.021939	435.28
87.93700	-211.17	0.16593	0.011004	-26.657	-0.021693	437.96
88.93700	-212.53	0.17043	0.0113	-26.841	-0.021618	440.36
89.93700	-211.78	0.177	0.011733	-26.767	-0.021927	444.8
90.93700	-211.7	0.18173	0.012044	-26.759	-0.021759	451.81
91.93700	-212.08	0.18351	0.01216	-26.808	-0.022151	459.42
92.93700	-210.27	0.18374	0.012179	-26.579	-0.02231	465.6
93.93700	-210.38	0.18388	0.012186	-26.593	-0.021987	469.5
94.93700	-213.34	0.18606	0.012329	-26.97	-0.022286	472.15
95.93700	-212.55	0.19158	0.012693	-26.883	-0.022131	475.55
96.93700	-212.16	0.19702	0.013052	-26.842	-0.022446	480.89
97.44880	-212.17	0.19914	0.013193	-26.842	-0.02186	484.33
98.44880	-212.71	0.20149	0.013346	-26.919	-0.020876	491.41
99.44880	-212.59	0.20189	0.013371	-26.906	-0.020515	497.54
100.07580	-212.95	0.20195	0.013375	-26.948	-0.019978	500.41
101.07580	-214.24	0.20306	0.013447	-27.11	-0.020843	503.82
102.07580	-213.5	0.20725	0.013723	-27.022	-0.021904	507.19
103.07580	-213.22	0.21226	0.01405	-26.995	-0.021344	511.65
104.07580	-213.2	0.21605	0.014301	-27.004	-0.021335	517.62
105.07580	-213.72	0.21815	0.014439	-27.07	-0.021099	524.13
106.07580	-214.76	0.21902	0.014498	-27.208	-0.021246	529.77
107.07580	-214.46	0.2204	0.014589	-27.169	-0.021563	534.42
108.07580	-214.08	0.22312	0.014766	-27.126	-0.021366	538.29
109.07580	-213.78	0.22694	0.015016	-27.101	-0.021733	542.51
110.07580	-213.76	0.23072	0.015266	-27.105	-0.021774	547.5
111.07580	-213.94	0.23378	0.015465	-27.13	-0.021716	553.28
112.07580	-214.78	0.23531	0.015564	-27.244	-0.021681	559.14
113.07580	-215.12	0.23651	0.015645	-27.281	-0.021721	564.35
114.07580	-214.75	0.23849	0.015778	-27.237	-0.020717	568.85
115.07580	-214.66	0.24131	0.015962	-27.236	-0.020058	573.09
116.07580	-214.5	0.24453	0.016173	-27.227	-0.020896	577.64
117.07580	-214.76	0.24737	0.01636	-27.257	-0.020516	582.92
118.07580	-214.8	0.24956	0.016503	-27.266	-0.020913	588.53
119.07580	-215.27	0.25106	0.0166	-27.328	-0.018083	593.93
120.07580	-215.53	0.25247	0.016691	-27.363	-0.019162	599.03
121.07580	-215.43	0.25426	0.016811	-27.355	-0.021032	603.75
122.07580	-215.41	0.25675	0.016972	-27.359	-0.021239	608.37
123.07580	-215.72	0.25896	0.017117	-27.402	-0.021753	613.2
124.07580	-215.79	0.26116	0.017263	-27.409	-0.018777	618.18
125.07580	-215.76	0.26322	0.017397	-27.411	-0.018836	623.45
126.07580	-216.16	0.26456	0.017483	-27.468	-0.019138	628.56
127.07580	-216.47	0.26592	0.017572	-27.514	-0.020692	633.69
128.07580	-216.85	0.26734	0.017666	-27.562	-0.020574	638.69
129.07580	-216.92	0.26916	0.017784	-27.573	-0.018398	643.65
130.07580	-217.27	0.27028	0.017856	-27.616	-0.017338	648.65
131.07580	-217.35	0.27132	0.017924	-27.63	-0.017591	653.55
132.07580	-217.46	0.27252	0.018004	-27.648	-0.020423	658.44
133.07580	-217.71	0.27397	0.018098	-27.686	-0.01962	663.33
134.07580	-217.62	0.275	0.018164	-27.678	-0.016832	668.37
135.07580	-218.19	0.2756	0.018204	-27.745	-0.016533	673.46
136.07580	-218.96	0.27607	0.018239	-27.841	-0.019342	678.48
137.07580	-219.89	0.27637	0.018258	-27.96	-0.019261	683.39
138.07580	-218.98	0.27687	0.01829	-27.851	-0.015181	688.34
138.47640	-219.19	0.27701	0.0183	-27.872	-0.015124	690.23
139.47640	-219.71	0.27755	0.018337	-27.941	-0.017797	695.23
139.50490	-219.73	0.27756	0.018338	-27.94	-0.017874	695.38
140.50490	-219.17	0.27781	0.018352	-27.874	-0.01918	700.48
141.50490	-218.32	0.27774	0.018349	-27.77	-0.015287	705.52
142.50490	-217.28	0.27793	0.018363	-27.633	-0.01408	710.56
143.50490	-214.87	0.2782	0.018378	-27.323	-0.01677	715.52
144.50490	-207.88	0.278	0.018365	-26.44	-0.019118	720.45
145.50490	-195.9	0.27798	0.018367	-24.912	-0.016159	725.46
146.50490	-185.07	0.27772	0.018348	-23.54	-0.012484	730.19
147.50490	-178.38	0.27592	0.018228	-22.685	-0.013067	734.72
148.50490	-176.32	0.27123	0.017922	-22.414	-0.015243	738.65
149.50490	-175.21	0.26506	0.01752	-22.258	-0.017199	740.95
150.50490	-174.54	0.25666	0.016966	-22.162	-0.015615	740.95
151.50490	-175.81	0.25234	0.016684	-22.324	-0.012729	741.01
152.50490	-185.07	0.25274	0.01671	-23.499	-0.012124	745.24
153.50490	-183.26	0.25313	0.016733	-23.271	-0.012334	768.72
154.50490	-172.15	0.23694	0.015671	-21.834	-0.014892	792.61
155.50490	-171.81	0.21675	0.014345	-21.761	-0.015159	796.18
156.50490	-171.47	0.20436	0.013532	-21.702	-0.012348	791.72
157.50490	-175.35	0.20111	0.013315	-22.196	-0.01052	786.77
158.50490	-194.75	0.20181	0.013361	-24.651	-0.010794	787.87
159.50490	-205.01	0.20378	0.013492	-25.947	-0.013369	793.37
160.50490	-132.87	0.21402	0.014167	-16.828	-0.015113	799.8
161.50490	-98.523	0.22189	0.014684	-12.481	-0.010417	805.08
162.50490	-97.714	0.22543	0.014918	-12.387	-0.0090558	810.07
163.50490	-98.187	0.22878	0.015135	-12.45	-0.011038	815.05
164.50490	-98.467	0.23203	0.015351	-12.487	-0.01474	819.98
165.50490	-98.725	0.23586	0.015606	-12.523	-0.013109	824.9
166.50490	-98.934	0.23982	0.015864	-12.55	-0.0070184	830.04
167.50490	-99.129	0.24332	0.016092	-12.572	-0.0085836	835.15
168.50490	-99.26	0.24682	0.016323	-12.601	-0.0107	840.22
169.50490	-99.54	0.25012	0.016539	-12.642	-0.012377	845.38
170.50490	-99.806	0.25325	0.016746	-12.674	-0.0091965	850.21
171.50490	-100.06	0.25724	0.017007	-12.704	-0.0035591	855.2
172.50490	-100.12	0.26126	0.017271	-12.714	-0.0055645	860.27
173.50490	-100.13	0.26527	0.017533	-12.72	-0.0085803	865.3
174.50490	-100.06	0.26943	0.017805	-12.724	-0.010986	870.4
175.50490	-100.31	0.2733	0.018056	-12.754	-0.0046143	875.41
176.50490	-100.35	0.27709	0.018303	-12.764	-0.00082508	880.43
177.50490	-100.5	0.2808	0.018545	-12.785	-0.0020837	885.58
178.50490	-100.51	0.28425	0.01877	-12.786	-0.0060769	890.42
179.41180	-100.48	0.2877	0.018996	-12.787	-0.0081755	894.79
180.41180	-100.54	0.29149	0.019243	-12.801	-0.00082285	899.89
181.41180	-100.52	0.29524	0.019489	-12.809	0.0017346	905.04
182.41180	-100.8	0.29885	0.019725	-12.842	-0.00050045	910.09
183.41180	-100.83	0.30237	0.019954	-12.849	-0.004184	915.01
184.41180	-100.8	0.30594	0.020189	-12.842	-0.0037957	920.09
184.86640	-100.83	0.30754	0.020293	-12.854	-0.00014692	922.48
185.86640	-100.98	0.31077	0.020503	-12.878	0.0049607	927.92
186.86640	-101.06	0.31348	0.020683	-12.881	0.0011212	933.09
187.86640	-101.22	0.31598	0.020848	-12.901	-0.0034703	937.89
188.86640	-101.16	0.3186	0.021018	-12.898	0.00025847	942.55
189.86640	-101.12	0.32171	0.021221	-12.9	0.007456	947.41
190.86640	-101.11	0.3249	0.021432	-12.9	0.0047407	952.31
191.86640	-101.13	0.32799	0.021632	-12.907	0.00011721	957.28
192.86640	-101.27	0.3307	0.021808	-12.926	0.00075817	962.27
193.86640	-101.25	0.33338	0.021983	-12.923	0.0066877	967.19
194.86640	-101.15	0.33627	0.022171	-12.913	0.0085466	972.23
195.86640	-101.16	0.33889	0.022341	-12.917	0.0042065	977.37
196.86640	-101.24	0.3412	0.022492	-12.93	0.0016649	982.45
197.86640	-101.25	0.3435	0.022642	-12.933	0.0014162	987.43
198.86640	-101.55	0.34538	0.022764	-12.974	0.0061648	992.46
199.86640	-101.64	0.34707	0.022874	-12.986	0.0079313	997.35
200.86640	-101.78	0.34874	0.022984	-13.002	0.0069292	1002.3
201.86640	-101.91	0.35007	0.023069	-13.018	0.0039159	1007.2
202.86640	-101.79	0.35136	0.023154	-13.009	0.0061608	1012.3
203.86640	-102.22	0.3523	0.023216	-13.068	0.010067	1017.4
204.86640	-102.26	0.35304	0.023265	-13.071	0.011437	1022.5
205.86640	-102.85	0.35334	0.023284	-13.147	0.0116	1027.4
206.86640	-103.12	0.35346	0.023291	-13.178	0.01295	1032.3
207.86640	-103.31	0.35354	0.023297	-13.2	0.010868	1037.2
208.86640	-102.93	0.35364	0.023301	-13.155	0.01092	1042
209.86640	-102.69	0.35375	0.023309	-13.127	0.0092486	1047
210.86640	-102.19	0.35367	0.023304	-13.065	0.010936	1052
211.86640	-101.56	0.35368	0.023305	-12.983	0.012013	1057.1
212.86640	-100.35	0.3537	0.023309	-12.829	0.012706	1062.2
213.86640	-99.492	0.35376	0.023314	-12.714	0.012759	1067.2
214.86640	-98.423	0.35389	0.023321	-12.58	0.014217	1072.2
215.86640	-97.4	0.35403	0.023329	-12.451	0.016048	1077
216.86640	-96.253	0.35418	0.02334	-12.304	0.016672	1082
217.86640	-95.367	0.35417	0.023339	-12.191	0.016612	1086.9
218.86640	-94.495	0.35418	0.02334	-12.08	0.01729	1091.8
219.86640	-93.876	0.3543	0.023346	-11.998	0.017349	1097.1
220.37550	-93.094	0.35429	0.023344	-11.904	0.017326	1099.7
221.37550	-91.643	0.35421	0.02334	-11.713	0.016429	1104.6
222.37550	-90.799	0.3542	0.023341	-11.601	0.017539	1109.3
223.37550	-89.885	0.35438	0.023354	-11.487	0.017232	1114.3
224.00150	-89.373	0.35455	0.023365	-11.426	0.016245	1117.5
225.00150	-88.632	0.3547	0.023372	-11.33	0.016727	1122.6
226.00150	-87.954	0.35477	0.023374	-11.243	0.016618	1127.7
227.00150	-86.851	0.35461	0.023364	-11.102	0.01692	1132.8
228.00150	-85.677	0.3545	0.023358	-10.951	0.016762	1137.8
229.00150	-84.823	0.35469	0.023373	-10.841	0.017608	1142.6
230.00150	-83.923	0.35491	0.023385	-10.731	0.017116	1147.7
231.00150	-82.975	0.3549	0.023383	-10.61	0.017141	1152.7
232.00150	-81.867	0.35471	0.023371	-10.463	0.017336	1157.7
233.00150	-80.576	0.35464	0.023368	-10.298	0.017397	1162.5
234.00150	-80.054	0.35489	0.023383	-10.235	0.016247	1167.5
235.00150	-79.147	0.35497	0.023387	-10.122	0.017078	1172.7
236.00150	-78.275	0.35485	0.023376	-10.01	0.016964	1178
237.00150	-77.233	0.35466	0.023367	-9.8709	0.016774	1183
238.00150	-76.407	0.35478	0.023379	-9.763	0.016844	1188.1
239.00150	-75.726	0.35498	0.023392	-9.6782	0.016717	1193.2
240.00150	-75.194	0.35499	0.02339	-9.614	0.017292	1198.1
241.00150	-72.691	0.35424	0.02334	-9.2933	0.017199	1202.4
242.00150	-68.321	0.35252	0.023232	-8.7302	0.016695	1203.8
243.00150	-64.966	0.35145	0.023161	-8.3039	0.016861	1203.4
244.00150	-63.271	0.35052	0.0231	-8.0853	0.017042	1202.2
245.00150	-62.402	0.34973	0.023048	-7.9718	0.017294	1201.4
246.00150	-61.426	0.34968	0.023048	-7.8476	0.01749	1201.1
247.00150	-61.653	0.34932	0.023024	-7.8826	0.017541	1200.8
248.00150	-61.382	0.34893	0.022997	-7.8424	0.016975	1200.8
249.00150	-61.168	0.34791	0.022929	-7.8123	0.017518	1200.6
250.00150	-61.037	0.3468	0.022858	-7.7945	0.017549	1200.5
251.00150	-60.656	0.34573	0.022791	-7.7439	0.01781	1200.5
252.00150	-60.345	0.3442	0.022689	-7.7115	0.017405	1200.3
253.00150	-59.794	0.34267	0.022587	-7.6399	0.016824	1200.2
254.00150	-59.229	0.34149	0.022509	-7.5665	0.017238	1200.3
255.00150	-59.395	0.33991	0.022408	-7.5824	0.017306	1200.5
256.00150	-58.966	0.33834	0.022308	-7.5259	0.016841	1200.7
257.00150	-58.634	0.33675	0.022201	-7.4834	0.01725	1200.8
258.00150	-58.277	0.3347	0.022065	-7.4433	0.017584	1200.8
259.00150	-58.088	0.33259	0.021927	-7.4188	0.017468	1200.8
260.00150	-57.776	0.3308	0.021812	-7.3749	0.017588	1200.8
261.00150	-57.341	0.32915	0.021707	-7.3145	0.017473	1200.7
261.41420	-57.165	0.32862	0.021673	-7.2979	0.01765	1200.7
262.41420	-56.956	0.32713	0.021573	-7.2682	0.017099	1200.6
263.04180	-56.668	0.32612	0.021506	-7.2336	0.017413	1200.5
264.04180	-55.607	0.32516	0.021443	-7.0999	0.01734	1200.6
265.04180	-56.388	0.32341	0.021331	-7.1986	0.017674	1200.8
266.04180	-56.407	0.32149	0.021205	-7.1984	0.017641	1200.7
267.04180	-55.819	0.32022	0.021124	-7.1177	0.01755	1200.7
268.04180	-55.845	0.3189	0.021042	-7.1167	0.017459	1200.6
269.04180	-55.167	0.31809	0.020989	-7.0329	0.017073	1200.5
270.04180	-55.384	0.31708	0.020923	-7.0621	0.019573	1200.4
271.04180	-55.669	0.31589	0.020843	-7.1014	0.021779	1200.5
272.04180	-55.29	0.315	0.020783	-7.0488	0.022088	1200.3
273.04180	-55.028	0.31423	0.020733	-7.0143	0.023186	1200.3
274.04180	-55.507	0.31291	0.020646	-7.0758	0.021425	1200.4
275.04180	-55.403	0.31182	0.020574	-7.0622	0.022272	1200.3
276.04180	-55.475	0.31102	0.020523	-7.0729	0.021848	1200.1
277.04180	-55.433	0.31006	0.020459	-7.068	0.022283	1200.1
278.04180	-55.236	0.30926	0.020406	-7.0431	0.022443	1200.2
279.04180	-56.358	0.30804	0.020327	-7.1811	0.022672	1200.2
280.04180	-56.603	0.30673	0.020242	-7.2078	0.022729	1200.3
281.04180	-57.008	0.3052	0.020144	-7.2608	0.022543	1200.3
282.04180	-57.079	0.30387	0.020058	-7.2721	0.022644	1200.3
283.04180	-57.168	0.30255	0.019972	-7.2838	0.02269	1200.3
284.04180	-57.232	0.3011	0.019877	-7.2929	0.022402	1200.3
285.04180	-57.39	0.29972	0.019786	-7.3083	0.023102	1200.3
286.04180	-57.503	0.29814	0.019682	-7.321	0.022949	1200.2
287.04180	-57.276	0.2971	0.019612	-7.2938	0.022507	1200.2
288.04180	-57.366	0.29568	0.01952	-7.3085	0.021926	1200.2
289.04180	-57.643	0.29427	0.019427	-7.3425	0.021673	1200.1
290.04180	-57.438	0.29303	0.019349	-7.3179	0.022103	1199.9
291.04180	-57.434	0.29198	0.019279	-7.311	0.021451	1199.9
292.04180	-57.962	0.29057	0.019184	-7.3778	0.022068	1200
293.04180	-56.999	0.28994	0.019147	-7.2523	0.021968	1200
294.04180	-58.194	0.28818	0.01903	-7.4104	0.022502	1200.1
295.04180	-57.31	0.28741	0.01898	-7.2969	0.022148	1200.1
296.04180	-58.521	0.28535	0.018845	-7.4466	0.022606	1200.1
297.04180	-58.469	0.28393	0.018754	-7.4415	0.022935	1200.1
298.04180	-58.693	0.28207	0.018632	-7.4661	0.022862	1200.1
299.04180	-58.756	0.28006	0.018502	-7.4699	0.022539	1200.1
300.04180	-58.511	0.2781	0.018374	-7.4376	0.023241	1200
301.04180	-58.626	0.27603	0.018239	-7.4554	0.023616	1200
302.04180	-58.848	0.27397	0.018106	-7.4853	0.023466	1200
302.36630	-58.716	0.27336	0.018065	-7.4635	0.023825	1199.9
303.36630	-58.576	0.27173	0.017956	-7.4445	0.023177	1200
303.39350	-58.595	0.27171	0.017954	-7.4467	0.023174	1199.9
304.39350	-58.786	0.27012	0.017848	-7.4745	0.024056	1200
305.39350	-58.697	0.26877	0.017759	-7.4635	0.023724	1200.1
306.39350	-58.91	0.26723	0.017657	-7.4871	0.02386	1200
307.39350	-58.807	0.26587	0.017568	-7.4748	0.023621	1199.9
308.39350	-58.683	0.26474	0.017492	-7.4587	0.024403	1199.9
309.39350	-58.338	0.26397	0.017442	-7.4123	0.02459	1199.9
310.39350	-57.302	0.26348	0.017411	-7.2847	0.024442	1199.9
311.39350	-58.672	0.26162	0.017288	-7.4577	0.024233	1199.6
312.39350	-58.045	0.26098	0.017247	-7.3747	0.024385	1199.5
313.39350	-57.076	0.26086	0.017239	-7.2516	0.024669	1199.6
314.39350	-58.254	0.2596	0.01716	-7.3994	0.024144	1199.8
315.39350	-57.509	0.25892	0.017115	-7.3063	0.024339	1199.9
316.39350	-58.241	0.25765	0.017035	-7.3964	0.024002	1199.9
317.39350	-58.534	0.2563	0.016945	-7.4354	0.024437	1200
318.39350	-57.538	0.25575	0.01691	-7.3072	0.024708	1199.9
319.39350	-57.505	0.2549	0.016854	-7.2987	0.024068	1200
320.39350	-57.788	0.25405	0.016799	-7.3338	0.025057	1199.8
321.39350	-56.758	0.25393	0.01679	-7.2055	0.024407	1199.7
322.39350	-56.807	0.25378	0.016779	-7.2103	0.024714	1199.7
323.39350	-57.739	0.25328	0.016746	-7.3309	0.024719	1199.6
324.39350	-58.549	0.2533	0.01675	-7.437	0.024788	1199.6
325.39350	-59.47	0.25337	0.016751	-7.5537	0.025	1199.5
326.39350	-61.167	0.25356	0.016764	-7.7669	0.024918	1199.5
327.39350	-62.4	0.25364	0.01677	-7.9171	0.025364	1199.7
328.39350	-63.548	0.25374	0.016775	-8.0668	0.02538	1199.8
329.39350	-63.88	0.25392	0.016786	-8.1082	0.025955	1199.9
330.39350	-64.25	0.25408	0.016797	-8.1597	0.025878	1199.9
331.39350	-64.398	0.25427	0.016811	-8.1802	0.02576	1199.9
332.39350	-64.559	0.25459	0.016833	-8.1958	0.025404	1199.9
333.39350	-64.837	0.25488	0.016854	-8.2355	0.025422	1199.9
334.39350	-65.529	0.25518	0.016869	-8.3196	0.025653	1199.9
335.39350	-66.183	0.25543	0.016883	-8.4028	0.026269	1199.9
336.39350	-66.042	0.25549	0.016885	-8.3892	0.025495	1199.9
337.39350	-66.377	0.25556	0.016891	-8.4347	0.025897	1200
338.39350	-66.012	0.25554	0.016892	-8.3824	0.025464	1200.2
339.39350	-64.818	0.25587	0.016915	-8.2291	0.02553	1200.1
340.39350	-63.757	0.25626	0.016939	-8.0962	0.025518	1200
341.39350	-63.18	0.25649	0.016955	-8.025	0.02574	1200.1
342.39350	-62.651	0.25649	0.016952	-7.9599	0.026614	1200.3
343.30450	-62.917	0.2563	0.016941	-7.9935	0.026779	1200.4
344.30450	-62.27	0.25633	0.016949	-7.9053	0.026691	1200.5
345.30450	-61.984	0.25652	0.01696	-7.8691	0.027609	1200.4
346.30450	-61.694	0.25652	0.016956	-7.8373	0.026277	1200.4
347.30450	-61.331	0.25632	0.016942	-7.7914	0.026817	1200.4
347.83610	-60.801	0.25623	0.016937	-7.7206	0.026693	1200.3
348.83610	-59.973	0.25612	0.016932	-7.6137	0.026806	1200.3
349.83610	-60.007	0.256	0.016927	-7.6182	0.026863	1200.2
350.83610	-59.142	0.25619	0.01694	-7.5143	0.02702	1200.1
351.83610	-59.778	0.25629	0.016943	-7.5909	0.027536	1200.1
352.83610	-59.156	0.25618	0.016935	-7.5108	0.026766	1200.2
353.83610	-57.963	0.25588	0.016915	-7.3611	0.027159	1200.2
354.83610	-57.39	0.25574	0.016906	-7.2869	0.026924	1200.1
355.83610	-58.312	0.25563	0.016901	-7.4046	0.027319	1200.1
356.83610	-57.868	0.25594	0.016921	-7.3534	0.027247	1200.2
357.83610	-57.303	0.25602	0.016922	-7.2781	0.027057	1200.2
358.83610	-56.894	0.25587	0.016911	-7.2257	0.027173	1200.2
359.83610	-56.365	0.25556	0.016891	-7.1578	0.02765	1200.1
360.83610	-57.514	0.25497	0.016856	-7.3031	0.026689	1200
361.83610	-58.451	0.25467	0.016836	-7.4257	0.026346	1200.3
362.83610	-57.828	0.25484	0.016847	-7.347	0.026767	1200.1
363.83610	-57.667	0.25491	0.016848	-7.3237	0.027372	1200.1
364.83610	-57.091	0.25474	0.016836	-7.2509	0.027904	1200.1
365.83610	-56.823	0.25448	0.01682	-7.216	0.026756	1199.9
366.83610	-57.409	0.25441	0.016819	-7.2909	0.026792	1200
367.83610	-58.881	0.25409	0.0168	-7.4818	0.026929	1199.9
368.83610	-59.043	0.25424	0.01681	-7.4972	0.027415	1200.1
369.83610	-59.203	0.25444	0.016824	-7.5194	0.028315	1200.1
370.83610	-58.918	0.25441	0.016819	-7.4805	0.027004	1200
371.83610	-58.82	0.25437	0.016814	-7.4692	0.026743	1199.8
372.83610	-58.948	0.25433	0.016812	-7.4891	0.026567	1199.9
373.83610	-59.345	0.25429	0.016812	-7.5394	0.027695	1200
374.83610	-59.374	0.2543	0.016815	-7.5423	0.027266	1200
375.83610	-59.107	0.25423	0.016809	-7.5029	0.026162	1199.9
376.83610	-58.928	0.25417	0.016808	-7.4786	0.026207	1199.9
377.83610	-58.674	0.25426	0.016813	-7.4486	0.026722	1199.9
378.83610	-58.513	0.25429	0.016814	-7.4323	0.026809	1199.9
379.83610	-58.505	0.25434	0.016818	-7.4324	0.026738	1200
380.83610	-58.057	0.25436	0.016818	-7.3743	0.026078	1200.1
381.83610	-57.519	0.25431	0.016813	-7.3076	0.025605	1200.1
382.83610	-57.358	0.25422	0.016809	-7.2822	0.027162	1200
383.83610	-59.962	0.25291	0.016721	-7.6135	0.027687	1200.1
384.34110	-60.116	0.25273	0.016708	-7.6366	0.027752	1200.1
385.34110	-59.638	0.25273	0.016706	-7.5707	0.027932	1200.2
386.34110	-58.963	0.25246	0.016688	-7.4854	0.027832	1200.1
386.96910	-58.907	0.25244	0.016686	-7.4814	0.027545	1200
387.96910	-58.84	0.25244	0.016685	-7.477	0.027403	1200.1
388.96910	-57.891	0.25219	0.016669	-7.3537	0.027318	1200.2
389.96910	-60.758	0.25045	0.016555	-7.7115	0.027558	1200.1
390.96910	-59.956	0.24998	0.016526	-7.6116	0.028044	1200.3
391.96910	-60.353	0.24892	0.016457	-7.6645	0.027385	1200.3
392.96910	-60.438	0.24811	0.016407	-7.6739	0.027753	1200.1
393.96910	-60.02	0.24746	0.016365	-7.619	0.027673	1200.2
394.96910	-60.132	0.24681	0.016325	-7.6357	0.027342	1200.2
395.96910	-60.357	0.24565	0.016246	-7.661	0.027125	1200.1
396.96910	-60.546	0.24441	0.016165	-7.6804	0.027413	1199.8
397.96910	-59.545	0.24403	0.016137	-7.5574	0.027052	1199.8
398.96910	-58.548	0.24377	0.01612	-7.4333	0.027261	1199.8
399.96910	-59.992	0.24277	0.016055	-7.6134	0.027469	1199.8
400.96910	-59.347	0.24258	0.016046	-7.5288	0.027329	1199.9
401.96910	-59.395	0.24206	0.016013	-7.5347	0.026793	1199.9
402.96910	-59.724	0.24171	0.015989	-7.5776	0.027627	1199.9
403.96910	-58.528	0.24163	0.015981	-7.4257	0.027295	1199.8
404.96910	-59.911	0.24068	0.015919	-7.604	0.028051	1199.8
405.96910	-60.1	0.24044	0.015902	-7.6271	0.026965	1200
406.96910	-58.935	0.24035	0.015899	-7.4779	0.026154	1200.1
407.96910	-58.813	0.2403	0.015895	-7.4599	0.026553	1200
408.96910	-59.233	0.23994	0.015869	-7.5136	0.026783	1199.9
409.96910	-59.558	0.2397	0.015851	-7.5601	0.027438	1199.8
410.96910	-60.122	0.23976	0.015858	-7.6287	0.027464	1199.8
411.96910	-60.661	0.24019	0.015886	-7.6947	0.027802	1199.8
412.96910	-61.704	0.24012	0.015878	-7.8263	0.028511	1199.9
413.96910	-62.648	0.24007	0.015877	-7.9474	0.028156	1199.8
414.96910	-64.14	0.24054	0.015911	-8.1402	0.028337	1199.8
415.96910	-65.868	0.24082	0.015924	-8.3622	0.028086	1199.8
416.96910	-66.63	0.24062	0.015913	-8.4548	0.027941	1199.9
417.96910	-66.299	0.24088	0.015934	-8.4079	0.027882	1199.8
418.96910	-65.67	0.24119	0.01595	-8.3321	0.028853	1199.8
419.96910	-65.237	0.24102	0.015937	-8.2785	0.027894	1199.8
420.96910	-60.155	0.24022	0.015891	-7.632	0.02775	1198.7
421.96910	-59.323	0.23549	0.01558	-7.5276	0.027576	1194.6
422.96910	-59.973	0.22927	0.015168	-7.6012	0.027941	1189.1
423.96910	-60.228	0.22409	0.014831	-7.6268	0.02853	1183.4
424.96910	-60.252	0.22	0.014563	-7.6342	0.028322	1177.9
425.36920	-60.428	0.21836	0.014454	-7.6515	0.027908	1175.9
426.36920	-60.473	0.21427	0.014183	-7.6577	0.028188	1170.6
426.39500	-60.471	0.21418	0.014177	-7.6579	0.028188	1170.5
427.39500	-60.609	0.20979	0.013892	-7.6739	0.027873	1165.4
428.39500	-60.616	0.20603	0.013645	-7.6741	0.028754	1160.3
429.39500	-60.872	0.20153	0.013346	-7.7077	0.028202	1155.3
430.39500	-61.086	0.19688	0.013043	-7.7235	0.027275	1150.2
431.39500	-61.15	0.19272	0.012768	-7.7306	0.027234	1145.2
432.39500	-61.176	0.18854	0.012491	-7.7344	0.027451	1140.2
433.39500	-61.303	0.18427	0.01221	-7.7492	0.028074	1135.2
434.39500	-61.305	0.1806	0.01197	-7.7505	0.028227	1130.2
435.39500	-61.454	0.17691	0.011725	-7.7643	0.028025	1125.2
436.39500	-61.517	0.17299	0.011463	-7.767	0.028038	1120.1
437.39500	-61.496	0.16917	0.011214	-7.7603	0.027913	1115.1
438.39500	-61.343	0.1655	0.010974	-7.7473	0.028526	1110.2
439.39500	-61.6	0.16175	0.010726	-7.7784	0.028671	1105.2
440.39500	-61.812	0.042583	0.0028214	-7.7461	0.019981	1100.3
441.10000	-61.679	0.0040715	0.00023958	-7.777	0.030366	1097.8
441.10050	-60.099	0.0052752	0.00036443	-7.4693	0.027917	1097.9
441.10100	-60.842	0.004245	0.00030887	-7.5737	0.027178	1097.9
441.10150	-61.418	0.0012914	9.3201e-05	-7.6609	0.027314	1097.9
441.10200	-63.468	-0.00049628	-1.4389e-05	-7.9004	0.025549	1097.9
441.10250	-64.034	-0.0005133	-5.426e-05	-7.9892	0.027913	1097.9
441.10300	-64.41	-0.00084676	-4.9705e-05	-8.0503	0.029074	1097.9
441.10350	-64.198	-0.00050468	-3.497e-05	-8.0444	0.029421	1097.9
441.10400	-63.737	-0.00091158	-1.937e-05	-7.9736	0.028225	1097.9
441.10450	-63.032	-0.0017124	-0.00011017	-7.8361	0.02343	1097.9
441.10500	-63.521	-0.0018667	-0.00012727	-7.9712	0.023526	1097.9
441.10550	-63.376	-0.0017393	-0.00012822	-7.8086	0.020099	1097.9
441.10600	-65.442	-0.0011872	-0.00013899	-8.2807	0.016757	1097.9
441.10650	-61.085	-0.0016877	-0.00013077	-7.5556	0.0038918	1097.9
441.10700	-65.591	-0.0015202	-9.665e-05	-8.2856	-0.0070767	1097.9
441.10750	-63.111	-0.0019117	-0.00015315	-7.7862	-0.022218	1097.9
441.10800	-67.006	-0.0017779	-0.00011941	-8.5205	-0.040563	1097.9
441.10850	-60.165	-0.0017872	-0.00015939	-7.3496	-0.063626	1097.9
441.10900	-62.613	-0.0010873	-0.00011107	-7.4631	-0.090941	1097.9
441.10950	-60.913	0.0018895	0.00010266	-7.4579	-0.1281	1097.9
441.11000	-69.454	0.0048621	0.00033244	-8.6782	-0.1722	1097.9
441.11050	-63.239	0.0057097	0.00035053	-7.8981	-0.21833	1097.9
441.11100	-73.975	0.0039328	0.00025341	-9.1828	-0.26937	1097.9
441.11150	-64.642	0.0024057	0.0001291	-8.2341	-0.31956	1097.9
441.11200	-71.075	0.0013808	8.7721e-05	-8.7644	-0.37982	1097.9
441.11250	-60.166	0.00056171	7.6724e-05	-7.6024	-0.44689	1098
441.11300	-69.236	0.00080946	6.0733e-05	-8.5814	-0.50838	1098
441.11350	-59.173	3.6403e-05	2.7358e-05	-7.5145	-0.58198	1098
441.11400	-69.031	5.3509e-05	-1.4258e-05	-8.4868	-0.65015	1098
441.11450	-65.358	-0.00040789	3.8304e-06	-8.1731	-0.7264	1098
441.11500	-61.218	-0.00088907	-6.0679e-05	-7.7796	-0.80413	1098
441.11550	-62.441	-0.00089142	-5.5209e-05	-7.7043	-0.88264	1098
441.11600	-66.646	-0.0013127	-7.8272e-05	-8.3807	-0.96177	1098
441.11650	-68.121	-0.0011831	-0.00010405	-8.4809	-1.0386	1098.1
441.11700	-62.649	-0.001777	-0.00010737	-7.9421	-1.1268	1098.1
441.11750	-57.674	-0.0013881	-9.361e-05	-7.1249	-1.2124	1098.2
441.11800	-68.201	-0.0014419	-0.00010296	-8.4316	-1.2913	1098.3
441.11850	-66.687	-0.0015063	-9.1394e-05	-8.4164	-1.3627	1098.4
441.11900	-69.333	-0.001217	-9.4833e-05	-9.1861	-1.4461	1098.5
441.11950	-57.581	0.0011255	4.222e-05	-7.2638	-1.5351	1098.6
441.12000	-62.911	0.0049175	0.00027546	-7.7346	-1.6115	1098.7
441.12050	-68.686	0.0059365	0.00039309	-8.6482	-1.6847	1098.8
441.12100	-56.764	0.0043017	0.00030069	-7.2712	-1.7642	1098.8
441.12150	-57.233	0.0020637	0.00017613	-7.0303	-1.8421	1098.9
441.12200	-60.963	0.00028744	5.4453e-05	-7.4883	-1.9112	1099
441.12250	-79.728	-9.3364e-06	-1.5179e-05	-9.5358	-1.9716	1099.1
441.12300	-109.1	-0.0018072	-0.00010654	-12.767	-2.0349	1099.2
441.12350	-258.24	-0.0068345	-0.00041545	-29.221	-2.0801	1099.3
441.12400	-517.26	-0.01892	-0.0011417	-61.448	-2.1232	1099.4
441.12450	-452.12	-0.040139	-0.0024998	-58.333	-2.1698	1099.5
441.12500	-512.94	-0.073919	-0.004637	-62.255	-2.2247	1099.5
441.12550	-569.04	-0.11773	-0.0075592	-70.137	-2.2916	1099.6
441.12600	-609.91	-0.1671	-0.010847	-75.36	-2.3463	1099.7
441.12650	-570.45	-0.21568	-0.014145	-69.85	-2.3974	1099.8
441.12700	-605.72	-0.26087	-0.017212	-74.133	-2.4399	1099.8
441.12750	-637.15	-0.30177	-0.02001	-77.845	-2.48	1099.9
441.12800	-669.08	-0.34058	-0.022678	-81.27	-2.5231	1099.9
441.12850	-680.65	-0.38294	-0.025507	-82.278	-2.5724	1100
441.12900	-695.29	-0.42973	-0.028703	-83.452	-2.6244	1100
441.12950	-717.39	-0.47883	-0.032058	-86.653	-2.6733	1100
441.13000	-734.75	-0.52752	-0.035395	-88.61	-2.7283	1100.1
441.13050	-742.07	-0.57631	-0.038835	-88.982	-2.7769	1100.1
441.13100	-755.68	-0.62516	-0.042173	-90.184	-2.8315	1100.2
441.13150	-782.73	-0.67098	-0.045418	-92.904	-2.8794	1100.2
441.13200	-799.99	-0.71219	-0.048347	-95.078	-2.9291	1100.3
441.13250	-815.8	-0.7539	-0.051236	-96.473	-2.9863	1100.3
441.13300	-821.81	-0.79646	-0.054191	-97.107	-3.0398	1100.4
441.13350	-841.75	-0.84288	-0.05745	-98.836	-3.1007	1100.4
441.13400	-857.22	-0.89277	-0.060941	-100.58	-3.1576	1100.5
441.13450	-861.64	-0.94443	-0.064628	-100.77	-3.2128	1100.5
441.13500	-873.55	-0.99764	-0.068433	-101.61	-3.2677	1100.5
441.13550	-901.26	-1.0505	-0.07222	-104.29	-3.3255	1100.6
441.13600	-913.64	-1.1024	-0.075926	-105.73	-3.3854	1100.6
441.13650	-927.91	-1.1559	-0.079738	-106.75	-3.4444	1100.7
441.13700	-935.46	-1.2108	-0.08368	-107.34	-3.5088	1100.8
441.13750	-950.29	-1.2668	-0.087783	-108.44	-3.5649	1100.9
441.13800	-967.3	-1.3229	-0.091867	-109.92	-3.6321	1101
441.13850	-983.44	-1.3788	-0.095971	-111.47	-3.6967	1101.1
441.13900	-996.5	-1.4351	-0.10009	-112.95	-3.7512	1101.2
441.13950	-1001.9	-1.488	-0.104	-112.55	-3.8142	1101.3
441.14000	-1016.2	-1.5385	-0.1078	-113.78	-3.8773	1101.3
441.14050	-1020	-1.59	-0.11161	-113.89	-3.9443	1101.4
441.14100	-1027.3	-1.6459	-0.11576	-114.15	-4.005	1101.5
441.14150	-1038	-1.7038	-0.1201	-114.76	-4.0674	1101.6
441.14200	-1062	-1.7615	-0.12444	-116.83	-4.1268	1101.7
441.14250	-1074.1	-1.8168	-0.12866	-117.85	-4.1922	1101.8
441.14300	-1075.7	-1.8717	-0.13284	-117.63	-4.2532	1101.9
441.14350	-1082.6	-1.9257	-0.137	-117.7	-4.3109	1102
441.14400	-1097.7	-1.98	-0.14113	-118.9	-4.3712	1102.1
441.14450	-1107.6	-2.0329	-0.14522	-119.44	-4.4284	1102.1
441.14500	-1114.4	-2.0858	-0.14923	-119.93	-4.489	1102.2
441.14550	-1116.8	-2.1386	-0.15335	-119.44	-4.5475	1102.3
441.14600	-1132.3	-2.1905	-0.15743	-120.65	-4.6005	1102.4
441.14650	-1147.3	-2.2424	-0.16145	-121.63	-4.6602	1102.5
441.14700	-1152.3	-2.2928	-0.16541	-121.99	-4.7184	1102.5
441.14750	-1155	-2.3439	-0.16943	-121.59	-4.776	1102.6
441.14800	-1167.8	-2.3948	-0.17345	-122.45	-4.8312	1102.7
441.14850	-1182.3	-2.4444	-0.17746	-123.42	-4.8881	1102.8
441.14900	-1179.3	-2.4928	-0.18132	-122.49	-4.9404	1102.8
441.14950	-1189.7	-2.5379	-0.18495	-123.36	-4.9961	1102.9
441.15000	-1206.7	-2.5817	-0.1885	-124.56	-5.0566	1103
441.15050	-1226.9	-2.6275	-0.19216	-126.2	-5.1088	1103
441.15100	-1241	-2.6776	-0.19617	-127.29	-5.1677	1103.1
441.15150	-1242.3	-2.7307	-0.20045	-126.97	-5.2242	1103.2
441.15200	-1247.9	-2.7845	-0.20492	-126.82	-5.2834	1103.2
441.15250	-1265.2	-2.8379	-0.20928	-127.98	-5.3441	1103.3
441.15300	-1276.1	-2.8904	-0.2136	-128.6	-5.4018	1103.4
441.15350	-1282	-2.9439	-0.218	-128.7	-5.4614	1103.4
441.15400	-1287.3	-2.9978	-0.22243	-128.56	-5.52	1103.5
441.15450	-1306	-3.0517	-0.22699	-129.74	-5.5807	1103.6
441.15500	-1319.2	-3.1051	-0.23149	-130.55	-5.637	1103.6
441.15550	-1325.9	-3.1587	-0.23597	-130.73	-5.6971	1103.7
441.15600	-1328.4	-3.212	-0.24048	-130.34	-5.7545	1103.8
441.15650	-1341.9	-3.2644	-0.24493	-131.01	-5.8116	1103.8
441.15700	-1358.4	-3.317	-0.24941	-131.99	-5.8751	1103.9
441.15750	-1365.2	-3.3689	-0.25391	-132.23	-5.9298	1103.9
441.15800	-1368	-3.4209	-0.25838	-131.85	-5.9892	1104
441.15850	-1382.5	-3.4729	-0.26285	-132.52	-6.0497	1104
441.15900	-1396.9	-3.5248	-0.26739	-133.3	-6.1077	1104.1
441.15950	-1414.2	-3.5758	-0.27178	-134.66	-6.16	1104.1
441.16000	-1408.5	-3.6235	-0.27605	-133.52	-6.2184	1104.2
441.16050	-1412.4	-3.6718	-0.28022	-133.08	-6.2804	1104.2
441.16100	-1425.2	-3.7231	-0.28478	-133.73	-6.3373	1104.3
441.16150	-1437.7	-3.7779	-0.28965	-134.18	-6.3956	1104.4
441.16200	-1443.2	-3.832	-0.29445	-134.2	-6.4514	1104.4
441.16250	-1453.7	-3.8852	-0.29926	-134.44	-6.5092	1104.5
441.16300	-1470.1	-3.9376	-0.30392	-135.3	-6.5698	1104.5
441.16350	-1485.5	-3.9881	-0.30862	-136.13	-6.6258	1104.6
441.16400	-1488.6	-4.0402	-0.31331	-135.86	-6.6831	1104.6
441.16450	-1490.1	-4.092	-0.31811	-135.3	-6.7408	1104.7
441.16500	-1506.2	-4.1439	-0.32283	-135.99	-6.795	1104.7
441.16550	-1520.9	-4.1954	-0.32753	-136.76	-6.8544	1104.8
441.16600	-1527.2	-4.2454	-0.3322	-136.74	-6.908	1104.8
441.16650	-1529.3	-4.2958	-0.33693	-136.26	-6.966	1104.9
441.16700	-1543.8	-4.3465	-0.34166	-136.82	-7.0184	1105
441.16750	-1560.3	-4.3972	-0.34636	-137.67	-7.0785	1105.2
441.16799	-1568.7	-4.4475	-0.35116	-137.86	-7.1331	1105.3
441.16849	-1571	-4.4977	-0.35592	-137.34	-7.1897	1105.4
441.16899	-1581.5	-4.5481	-0.36074	-137.62	-7.2446	1105.5
441.16949	-1593.9	-4.5966	-0.36544	-137.72	-7.2997	1105.6
441.16999	-1611.7	-4.6419	-0.36982	-138.91	-7.3569	1105.7
441.17049	-1619.5	-4.6867	-0.37417	-139	-7.4101	1105.8
441.17099	-1633.8	-4.7362	-0.37886	-139.53	-7.4677	1105.9
441.17149	-1653.3	-4.7885	-0.38392	-140.41	-7.5235	1106
441.17199	-1664.7	-4.8416	-0.38915	-140.77	-7.5818	1106.1
441.17249	-1668.7	-4.8942	-0.39439	-140.4	-7.6433	1106.2
441.17299	-1675.3	-4.9466	-0.39961	-140.16	-7.6965	1106.3
441.17349	-1693.9	-4.9984	-0.40476	-140.9	-7.7544	1106.4
441.17399	-1712.2	-5.049	-0.40982	-141.77	-7.8127	1106.5
441.17449	-1719.7	-5.1003	-0.41494	-141.75	-7.8686	1106.6
441.17499	-1727.7	-5.1512	-0.42007	-141.64	-7.9277	1106.7
441.17549	-1747.6	-5.2021	-0.4253	-142.38	-7.9805	1106.9
441.17599	-1769.2	-5.2528	-0.43047	-143.48	-8.0372	1107
441.17649	-1779.2	-5.3037	-0.43571	-143.64	-8.0958	1107
441.17699	-1786.4	-5.355	-0.44099	-143.43	-8.1566	1107.1
441.17749	-1804	-5.4061	-0.44636	-143.94	-8.2133	1107.2
441.17799	-1826.1	-5.4576	-0.45167	-144.96	-8.2687	1107.3
441.17849	-1843.4	-5.5089	-0.45709	-145.63	-8.3305	1107.3
441.17899	-1849.1	-5.5601	-0.46258	-145.32	-8.3872	1107.4
441.17949	-1866.2	-5.6118	-0.46796	-145.74	-8.4493	1107.5
441.17999	-1899	-5.6627	-0.47345	-147.53	-8.5068	1107.6
441.18049	-1908	-5.7109	-0.47859	-147.54	-8.5633	1107.6
441.18099	-1911.5	-5.7591	-0.48381	-147.11	-8.6209	1107.7
441.18149	-1923.6	-5.8106	-0.48934	-147.06	-8.6779	1107.8
441.18199	-1950.4	-5.8633	-0.49515	-148.22	-8.7401	1107.9
441.18249	-1972.1	-5.9164	-0.50092	-149.06	-8.7948	1107.9
441.18299	-1983.5	-5.9689	-0.50672	-149.13	-8.8529	1108
441.18349	-1993.2	-6.0201	-0.51241	-148.96	-8.9055	1108.1
441.18399	-2018.2	-6.0706	-0.51807	-149.84	-8.9646	1108.2
441.18449	-2041.6	-6.12	-0.52366	-150.83	-9.0212	1108.2
441.18499	-2055.9	-6.1696	-0.52922	-151.16	-9.0759	1108.3
441.18549	-2066.3	-6.2195	-0.53487	-151	-9.132	1108.4
441.18599	-2090.6	-6.268	-0.54043	-151.82	-9.1862	1108.5
441.18649	-2117.8	-6.3175	-0.54609	-152.94	-9.2412	1108.6
441.18699	-2138.6	-6.3665	-0.55177	-153.68	-9.3007	1108.7
441.18749	-2150.4	-6.4154	-0.55742	-153.65	-9.3563	1108.8
441.18799	-2173.8	-6.4645	-0.56323	-154.32	-9.4102	1109
441.18849	-2203.7	-6.5134	-0.56895	-155.55	-9.4648	1109.1
441.18899	-2227.5	-6.5621	-0.5747	-156.43	-9.5247	1109.2
441.18949	-2242.5	-6.6111	-0.58046	-156.59	-9.5751	1109.4
441.18999	-2253.7	-6.6596	-0.58622	-156.3	-9.6361	1109.5
441.19049	-2299	-6.7055	-0.59191	-158.52	-9.6881	1109.6
441.19099	-2333.4	-6.7522	-0.59742	-160.09	-9.7427	1109.7
441.19149	-2357	-6.8007	-0.60337	-160.83	-9.7993	1109.9
441.19199	-2375.4	-6.8513	-0.6095	-161.05	-9.8544	1110
441.19249	-2410	-6.9031	-0.6158	-162.29	-9.9102	1110.1
441.19299	-2445.8	-6.9535	-0.62212	-163.7	-9.9672	1110.2
441.19349	-2471.3	-7.004	-0.62844	-164.41	-10.023	1110.4
441.19399	-2495.3	-7.0547	-0.63478	-164.94	-10.083	1110.5
441.19449	-2532.8	-7.1037	-0.64101	-166.27	-10.136	1110.6
441.19499	-2574.9	-7.1541	-0.64731	-168.02	-10.194	1110.7
441.19549	-2606.1	-7.2033	-0.65362	-169.09	-10.25	1110.9
441.19599	-2632.5	-7.2538	-0.66016	-169.67	-10.311	1111
441.19649	-2667.7	-7.3032	-0.6666	-170.75	-10.363	1111.1
441.19699	-2714.4	-7.3537	-0.67312	-172.57	-10.422	1111.1
441.19749	-2751.9	-7.4023	-0.67954	-173.93	-10.473	1111.2
441.19799	-2781.5	-7.4518	-0.68606	-174.69	-10.528	1111.2
441.19849	-2818.7	-7.5019	-0.6926	-175.75	-10.588	1111.3
441.19899	-2869.2	-7.551	-0.69922	-177.7	-10.641	1111.4
441.19949	-2913.9	-7.5999	-0.70583	-179.34	-10.699	1111.4
441.19999	-2947.6	-7.6486	-0.71249	-180.28	-10.753	1111.5
441.20049	-2985.6	-7.6977	-0.71921	-181.29	-10.808	1111.6
441.20099	-3038.2	-7.7469	-0.72586	-183.21	-10.867	1111.6
441.20149	-3091	-7.7946	-0.73252	-185.22	-10.921	1111.7
441.20199	-3130.6	-7.8428	-0.73916	-186.42	-10.975	1111.7
441.20249	-3171	-7.8908	-0.74598	-187.52	-11.026	1111.8
441.20299	-3224.2	-7.9381	-0.75258	-189.28	-11.082	1111.9
441.20349	-3282.7	-7.9846	-0.75924	-191.48	-11.141	1111.9
441.20399	-3330.3	-8.0319	-0.76594	-193.03	-11.195	1112
441.20449	-3373.4	-8.0794	-0.77278	-194.19	-11.251	1112.1
441.20499	-3428.5	-8.1266	-0.77971	-195.91	-11.301	1112.1
441.20549	-3496.6	-8.1738	-0.78649	-198.42	-11.361	1112.2
441.20599	-3552.6	-8.2204	-0.79341	-200.35	-11.412	1112.2
441.20649	-3598	-8.2678	-0.80038	-201.48	-11.469	1112.3
441.20699	-3651	-8.3148	-0.8073	-202.98	-11.521	1112.3
441.20749	-3706.9	-8.3606	-0.81429	-204.71	-11.57	1112.4
441.20799	-3749.7	-8.4056	-0.82106	-205.8	-11.623	1112.4
441.20849	-3775.5	-8.4492	-0.82774	-205.9	-11.674	1112.4
441.20899	-3797.6	-8.4912	-0.83418	-205.78	-11.718	1112.5
441.20949	-3824.5	-8.5303	-0.84034	-205.92	-11.757	1112.5
441.20999	-3842.5	-8.5679	-0.84607	-205.85	-11.796	1112.5
441.21049	-3847.8	-8.602	-0.85157	-204.98	-11.835	1112.6
441.21099	-3839.6	-8.6334	-0.8566	-203.66	-11.864	1112.6
441.21149	-3838.6	-8.663	-0.86119	-202.53	-11.898	1112.6
441.21199	-3824.2	-8.689	-0.86534	-201.15	-11.919	1112.7
441.21249	-3796	-8.7126	-0.86907	-198.92	-11.948	1112.7
441.21299	-3750.3	-8.7333	-0.8724	-196.01	-11.969	1112.8
441.21349	-3721.3	-8.7505	-0.87522	-193.76	-11.982	1112.8
441.21399	-3691.8	-8.766	-0.87776	-191.88	-11.996	1112.8
441.21420	-3691.2	-8.7663	-0.8778	-191.84	-11.996	1112.9
441.71420	-1067.7	-8.816	-0.88607	-55.02	-11.958	1048.1
442.21420	-799.64	-8.8146	-0.88586	-41.175	-11.947	962.62
442.71420	-706.92	-8.8119	-0.88541	-36.415	-11.941	910.25
443.21420	-635.55	-8.8095	-0.88503	-32.753	-11.935	876
443.71420	-554.59	-8.8059	-0.88446	-28.596	-11.928	855.18
444.21420	-483.12	-8.8033	-0.88404	-24.921	-11.922	838.61
444.71420	-411.04	-8.801	-0.88367	-21.213	-11.915	821.59
445.21420	-349.77	-8.7995	-0.88342	-18.054	-11.91	808.67
445.71420	-290.68	-8.7978	-0.88315	-15.008	-11.904	797.7
446.21420	-234.14	-8.796	-0.88286	-12.094	-11.897	788.03
446.71420	-177.86	-8.7937	-0.88249	-9.1893	-11.89	778.02
447.21420	-131.42	-8.7919	-0.88221	-6.791	-11.883	767.71
447.71420	-98.632	-8.7918	-0.88219	-5.0977	-11.876	757.48
448.21420	-79.413	-8.7936	-0.88248	-4.1054	-11.868	746.8
448.71420	-70.122	-8.7972	-0.88305	-3.6201	-11.861	736.05
449.21420	-64.074	-8.8003	-0.88356	-3.3092	-11.851	725.04
449.71420	-61.014	-8.8015	-0.88375	-3.1481	-11.846	714.46
450.21420	-58.874	-8.8022	-0.88387	-3.039	-11.84	703.86
450.71420	-57.332	-8.803	-0.88397	-2.9561	-11.832	693.31
451.21420	-56.413	-8.8036	-0.88409	-2.9107	-11.824	682.69
451.71420	-55.58	-8.8041	-0.88417	-2.8689	-11.818	672.86
452.21420	-55.295	-8.8048	-0.88427	-2.8507	-11.811	663.48
452.71420	-54.934	-8.8051	-0.88433	-2.835	-11.803	654.35
453.21420	-54.809	-8.8055	-0.88439	-2.8246	-11.796	645.54
453.71420	-54.729	-8.8058	-0.88444	-2.8234	-11.789	637.06
454.21420	-54.442	-8.8062	-0.8845	-2.8081	-11.781	628.61
454.71420	-54.62	-8.8065	-0.88455	-2.8139	-11.774	620.62
455.21420	-54.253	-8.8069	-0.8846	-2.7985	-11.766	612.63
455.71420	-54.26	-8.8071	-0.88464	-2.795	-11.758	604.86
456.21420	-54.203	-8.8074	-0.88468	-2.7969	-11.751	597.45
456.71420	-54.436	-8.8076	-0.88472	-2.8038	-11.743	590.29
457.21420	-54.446	-8.8078	-0.88476	-2.8088	-11.736	582.77
457.71420	-54.138	-8.808	-0.88479	-2.7903	-11.729	575.66
458.21420	-54.304	-8.8083	-0.88484	-2.7967	-11.72	568.93
458.71420	-54.058	-8.8084	-0.88486	-2.7879	-11.714	562.4
459.21420	-54.142	-8.8088	-0.88491	-2.7894	-11.707	556.42
459.71420	-53.98	-8.8089	-0.88494	-2.7848	-11.701	550.49
460.21420	-53.828	-8.8091	-0.88495	-2.7723	-11.695	545.32
460.71420	-53.894	-8.8092	-0.88498	-2.7782	-11.688	539.91
461.21420	-53.806	-8.8094	-0.88502	-2.7745	-11.681	534.4
461.71420	-53.988	-8.8094	-0.88502	-2.7802	-11.674	529.32
462.21420	-53.761	-8.8096	-0.88505	-2.771	-11.667	524.37
462.71420	-53.872	-8.8098	-0.88508	-2.7737	-11.66	519.72
463.21420	-53.753	-8.8099	-0.88509	-2.7728	-11.653	514.85
463.71420	-53.735	-8.81	-0.8851	-2.7656	-11.645	510.48
464.21420	-53.815	-8.81	-0.88511	-2.774	-11.639	506.3
464.71420	-53.621	-8.8102	-0.88514	-2.7638	-11.632	502.15
465.21420	-53.841	-8.8103	-0.88516	-2.7725	-11.624	497.93
465.71420	-53.507	-8.8104	-0.88519	-2.7584	-11.617	494.08
466.21420	-53.615	-8.8106	-0.88521	-2.7602	-11.61	490.81
466.71420	-53.581	-8.8107	-0.88522	-2.7635	-11.602	487.33
467.21420	-53.455	-8.8107	-0.88522	-2.7531	-11.596	484.31
467.71420	-53.563	-8.8108	-0.88523	-2.7617	-11.589	481.25
468.21420	-53.304	-8.8109	-0.88525	-2.7473	-11.581	478.8
468.71420	-53.529	-8.8109	-0.88527	-2.7567	-11.575	476.34
469.21420	-53.328	-8.811	-0.88529	-2.7495	-11.568	474.05
469.71420	-53.509	-8.8111	-0.88529	-2.7547	-11.56	471.97
470.21420	-53.373	-8.8112	-0.88531	-2.7526	-11.55	470.23
470.71420	-53.398	-8.8113	-0.88532	-2.7511	-11.54	468.71
471.21420	-53.554	-8.8114	-0.88534	-2.7594	-11.533	467.37
471.71420	-53.305	-8.8115	-0.88536	-2.7469	-11.528	466.19
472.21420	-53.506	-8.8114	-0.88535	-2.7546	-11.523	465.24
472.71420	-53.279	-8.8115	-0.88535	-2.746	-11.516	464.07
473.21420	-53.303	-8.8115	-0.88536	-2.7441	-11.508	462.72
473.71420	-53.339	-8.8114	-0.88535	-2.7503	-11.502	460.73
474.21420	-53.1	-8.8114	-0.88534	-2.7347	-11.493	458.38
474.71420	-53.29	-8.8113	-0.88534	-2.7449	-11.483	455.19
475.21420	-53.07	-8.8113	-0.88533	-2.7362	-11.477	451.66
475.71420	-53.338	-8.8113	-0.88532	-2.7457	-11.471	447.43
476.21420	-53.025	-8.8111	-0.88529	-2.7344	-11.466	442.93
476.71420	-53.065	-8.8112	-0.88531	-2.7323	-11.458	438.06
477.21420	-53.159	-8.811	-0.88528	-2.7415	-11.45	433.02
477.71420	-53.009	-8.811	-0.88527	-2.7305	-11.441	428.12
478.21420	-53.128	-8.811	-0.88528	-2.7363	-11.433	422.9
478.71420	-52.971	-8.8109	-0.88527	-2.7298	-11.425	417.51
479.21420	-52.928	-8.8108	-0.88525	-2.7247	-11.416	412.28
479.71420	-53.002	-8.8109	-0.88526	-2.7313	-11.408	407.5
480.21420	-52.868	-8.8108	-0.88524	-2.7259	-11.401	402.56
480.71420	-53.148	-8.8107	-0.88523	-2.7349	-11.392	397.57
481.21420	-52.909	-8.8108	-0.88524	-2.7279	-11.384	392.74
481.71420	-52.951	-8.8108	-0.88523	-2.7256	-11.377	388.2
482.21420	-52.796	-8.8106	-0.8852	-2.7221	-11.369	383.71
482.71420	-53.008	-8.8105	-0.8852	-2.7323	-11.361	379.29
483.21420	-53.041	-8.8104	-0.88518	-2.7346	-11.352	374.91
483.71420	-52.811	-8.8104	-0.88518	-2.7217	-11.345	370.43
484.21420	-53.006	-8.8105	-0.88518	-2.73	-11.337	366.11
484.71420	-52.745	-8.8104	-0.88517	-2.7199	-11.338	361.79
485.21420	-52.788	-8.8103	-0.88515	-2.717	-11.333	357.63
485.71420	-52.724	-8.8103	-0.88515	-2.7211	-11.325	353.44
486.21420	-52.602	-8.8102	-0.88514	-2.7079	-11.318	349.45
486.71420	-52.718	-8.81	-0.88511	-2.7147	-11.311	345.41
487.21420	-52.59	-8.8099	-0.88509	-2.7114	-11.303	341.47
487.71420	-52.519	-8.8099	-0.8851	-2.7044	-11.294	337.55
488.21420	-52.538	-8.8098	-0.88509	-2.707	-11.286	333.77
488.71420	-52.401	-8.8097	-0.88507	-2.6998	-11.282	330.07
489.21420	-52.472	-8.8097	-0.88506	-2.7034	-11.276	326.55
489.71420	-52.316	-8.8096	-0.88505	-2.6965	-11.268	322.92
490.21420	-52.042	-8.8094	-0.88501	-2.6802	-11.258	319.24
490.71420	-51.79	-8.8091	-0.88498	-2.6702	-11.249	315.64
491.21420	-51.545	-8.809	-0.88495	-2.6558	-11.242	312.34
491.71420	-51.586	-8.8088	-0.88493	-2.6576	-11.234	308.82
492.21420	-51.385	-8.8086	-0.88488	-2.648	-11.227	305.4
492.71420	-51.315	-8.8084	-0.88485	-2.6423	-11.223	302.22
493.21420	-51.282	-8.8082	-0.88481	-2.6448	-11.219	299.1
493.71420	-50.922	-8.8081	-0.8848	-2.6238	-11.212	296.17
494.21420	-51.056	-8.8079	-0.88479	-2.6309	-11.205	293.01
494.71420	-50.839	-8.8078	-0.88476	-2.6228	-11.194	290.02
495.21420	-50.779	-8.8077	-0.88474	-2.6149	-11.182	287.02
495.71420	-50.615	-8.8076	-0.88473	-2.6125	-11.174	283.97
496.21420	-50.6	-8.8075	-0.88471	-2.6084	-11.166	281.13
496.71420	-50.585	-8.8073	-0.88469	-2.6084	-11.157	278.42
497.21420	-50.228	-8.8073	-0.88468	-2.5897	-11.149	275.34
497.71420	-50.481	-8.8071	-0.88465	-2.6008	-11.143	272.74
498.21420	-50.199	-8.807	-0.88464	-2.5899	-11.133	269.84
498.71420	-49.984	-8.8068	-0.88461	-2.5765	-11.125	267.23
499.21420	-50.053	-8.8067	-0.88458	-2.58	-11.117	264.65
499.71420	-49.686	-8.8066	-0.88458	-2.5638	-11.111	262.08
500.21420	-49.855	-8.8066	-0.88457	-2.5694	-11.102	259.66
500.71420	-49.487	-8.8064	-0.88454	-2.5538	-11.096	257.19
501.21420	-49.47	-8.8063	-0.88452	-2.55	-11.089	254.66
501.71420	-49.396	-8.8062	-0.88451	-2.547	-11.081	252.31
502.21420	-49.212	-8.8061	-0.88448	-2.5375	-11.073	249.97
502.71420	-49.261	-8.806	-0.88447	-2.5383	-11.067	247.53
503.21420	-48.932	-8.806	-0.88445	-2.5232	-11.058	245.5
503.71420	-48.972	-8.8058	-0.88443	-2.5236	-11.052	243.21
504.21420	-48.814	-8.8057	-0.88443	-2.5189	-11.045	241.07
504.71420	-48.708	-8.8056	-0.88441	-2.5123	-11.039	238.89
505.21420	-48.54	-8.8055	-0.88439	-2.502	-11.033	236.84
505.71420	-48.259	-8.8053	-0.88435	-2.4887	-11.026	234.79
506.21420	-48.269	-8.8054	-0.88437	-2.486	-11.019	232.69
506.71420	-48.18	-8.8052	-0.88432	-2.4853	-11.012	230.7
507.21420	-47.863	-8.805	-0.88429	-2.4668	-11.007	228.82
507.71420	-47.843	-8.805	-0.8843	-2.4679	-11	226.91
508.21420	-47.535	-8.8049	-0.88429	-2.4524	-10.993	225.02
508.71420	-47.483	-8.8048	-0.88427	-2.4465	-10.988	222.95
509.21420	-47.238	-8.8046	-0.88424	-2.4367	-10.98	221.13
509.71420	-47.178	-8.8047	-0.88426	-2.4294	-10.973	219.25
510.21420	-47.142	-8.8045	-0.88422	-2.4319	-10.967	217.45
510.71420	-46.811	-8.8043	-0.88419	-2.4137	-10.96	215.64
511.21420	-46.773	-8.8042	-0.88417	-2.4103	-10.953	213.85
511.71420	-46.578	-8.8041	-0.88416	-2.4024	-10.945	212.12
512.21420	-46.418	-8.8041	-0.88416	-2.3937	-10.939	210.21
512.71420	-46.441	-8.804	-0.88415	-2.3978	-10.932	208.49
513.21420	-46.04	-8.8039	-0.88413	-2.3756	-10.925	206.74
513.71420	-46.134	-8.8038	-0.88411	-2.3813	-10.919	205.01
514.21420	-45.804	-8.8038	-0.88411	-2.3646	-10.912	203.25
514.71420	-45.707	-8.8039	-0.88412	-2.3558	-10.906	201.53
515.21420	-45.646	-8.8037	-0.8841	-2.3566	-10.899	199.86
515.71420	-45.398	-8.8036	-0.88408	-2.3424	-10.891	198.18
516.21420	-45.413	-8.8035	-0.88407	-2.3436	-10.876	196.6
516.71420	-45.139	-8.8034	-0.88405	-2.3273	-10.862	194.87
517.21420	-45.017	-8.8034	-0.88406	-2.3207	-10.853	193.14
517.71420	-44.862	-8.8033	-0.88404	-2.3148	-10.845	191.45
518.21420	-44.649	-8.8033	-0.88403	-2.3012	-10.84	189.78
518.71420	-44.691	-8.8032	-0.88402	-2.3068	-10.834	188.26
519.21420	-44.419	-8.8032	-0.88401	-2.2907	-10.828	186.63
519.71420	-44.434	-8.8031	-0.884	-2.292	-10.822	184.98
520.21420	-44.17	-8.8031	-0.88399	-2.2802	-10.816	183.32
520.71420	-44.029	-8.8029	-0.88397	-2.2706	-10.808	181.71
521.21420	-43.997	-8.8029	-0.88398	-2.2706	-10.8	180.11
521.71420	-43.666	-8.8028	-0.88396	-2.252	-10.793	177.36
522.21420	-43.509	-8.8028	-0.88396	-2.2458	-10.785	173.77
522.71420	-43.297	-8.8028	-0.88395	-2.2335	-10.774	170.84
523.21420	-43.245	-8.8027	-0.88394	-2.2302	-10.767	168.3
523.71420	-43.115	-8.8026	-0.88393	-2.2269	-10.76	166.02
524.21420	-42.994	-8.8027	-0.88394	-2.2173	-10.755	163.9
524.71420	-42.862	-8.8026	-0.88392	-2.2144	-10.748	161.77
525.21420	-42.601	-8.8025	-0.88392	-2.1977	-10.74	159.87
525.71420	-42.633	-8.8026	-0.88392	-2.2006	-10.736	158.06
526.21420	-42.361	-8.8026	-0.88393	-2.1874	-10.729	156.24
526.71420	-42.371	-8.8025	-0.8839	-2.1856	-10.719	154.52
527.21420	-42.042	-8.8024	-0.88389	-2.1697	-10.707	152.88
527.71420	-41.955	-8.8024	-0.88389	-2.1624	-10.698	151.21
528.21420	-41.848	-8.8023	-0.88387	-2.1605	-10.69	149.62
528.71420	-41.515	-8.8022	-0.88386	-2.1418	-10.682	148.04
529.21420	-41.596	-8.8022	-0.88385	-2.1478	-10.673	146.5
529.71420	-41.304	-8.8022	-0.88385	-2.1325	-10.666	145.02
530.21420	-41.283	-8.8021	-0.88385	-2.1281	-10.66	143.54
530.71420	-41.061	-8.8021	-0.88384	-2.1191	-10.653	142.13
531.21420	-40.874	-8.8021	-0.88384	-2.1073	-10.645	140.78
531.71420	-40.792	-8.802	-0.88383	-2.1069	-10.638	139.41
532.21420	-40.602	-8.802	-0.88382	-2.0978	-10.629	138.04
532.71420	-40.672	-8.802	-0.88381	-2.0976	-10.624	136.69
533.21420	-40.36	-8.8019	-0.8838	-2.0822	-10.617	135.32
533.71420	-40.177	-8.8018	-0.88379	-2.0711	-10.61	133.99
534.21420	-40.092	-8.8019	-0.8838	-2.0695	-10.604	132.81
534.71420	-39.912	-8.8018	-0.88378	-2.0589	-10.598	131.51
535.21420	-39.759	-8.8017	-0.88378	-2.0514	-10.591	130.23
535.71420	-39.443	-8.8018	-0.88378	-2.035	-10.583	128.95
536.21420	-39.558	-8.8017	-0.88377	-2.0374	-10.577	127.97
536.71420	-39.268	-8.8017	-0.88376	-2.0274	-10.57	126.81
537.21420	-39.195	-8.8017	-0.88376	-2.0193	-10.566	125.67
537.71420	-39.206	-8.8016	-0.88376	-2.0246	-10.558	124.51
538.21420	-38.92	-8.8017	-0.88377	-2.0074	-10.55	123.4
538.71420	-38.908	-8.8016	-0.88375	-2.0068	-10.544	122.3
539.21420	-38.552	-8.8016	-0.88376	-1.9904	-10.537	121.26
539.71420	-38.522	-8.8016	-0.88375	-1.9866	-10.531	120.09
540.21420	-38.409	-8.8014	-0.88373	-1.9841	-10.523	119.16
540.71420	-38.279	-8.8015	-0.88374	-1.9734	-10.517	117.9
541.21420	-38.08	-8.8014	-0.88373	-1.968	-10.51	116.93
541.71420	-37.85	-8.8014	-0.88373	-1.9526	-10.502	115.93
542.21420	-37.955	-8.8014	-0.88373	-1.9591	-10.497	114.86
542.71420	-37.588	-8.8013	-0.88371	-1.9415	-10.489	114.15
543.21420	-37.581	-8.8014	-0.88372	-1.9354	-10.476	113.09
543.71420	-37.339	-8.8013	-0.88371	-1.9292	-10.468	112.24
544.21420	-37.238	-8.8013	-0.88371	-1.9201	-10.46	111.22
544.71420	-37.106	-8.8012	-0.8837	-1.9161	-10.454	110.44
545.21420	-36.912	-8.8013	-0.88371	-1.9047	-10.45	109.53
545.71420	-36.954	-8.8012	-0.8837	-1.9067	-10.445	108.53
546.21420	-36.787	-8.8013	-0.88371	-1.8983	-10.436	107.64
546.71420	-36.595	-8.8013	-0.88371	-1.8858	-10.429	106.93
547.21420	-36.462	-8.8013	-0.88372	-1.8815	-10.422	106.04
547.71420	-36.268	-8.8012	-0.88369	-1.8708	-10.414	105.1
548.21420	-36.215	-8.8012	-0.88369	-1.8702	-10.408	104.34
548.71420	-36.06	-8.801	-0.88367	-1.8606	-10.402	103.51
549.21420	-35.97	-8.8009	-0.88365	-1.8567	-10.395	102.69
549.71420	-35.757	-8.8009	-0.88365	-1.846	-10.388	101.82
550.21420	-35.646	-8.801	-0.88366	-1.8369	-10.381	101.21
550.71420	-35.478	-8.8008	-0.88365	-1.8318	-10.371	100.32
551.21420	-35.274	-8.8008	-0.88364	-1.8226	-10.363	99.596
551.71420	-35.3	-8.8008	-0.88364	-1.8218	-10.353	98.789
552.21420	-34.943	-8.8008	-0.88364	-1.8065	-10.345	98.064
552.71420	-34.918	-8.8008	-0.88364	-1.802	-10.338	97.323
553.21420	-34.975	-8.8009	-0.88366	-1.8056	-10.331	96.654
553.71420	-34.677	-8.8009	-0.88365	-1.7894	-10.323	95.896
554.21420	-34.579	-8.8009	-0.88363	-1.7844	-10.315	95.205
554.71420	-34.297	-8.8008	-0.88363	-1.77	-10.307	94.458
555.21420	-34.431	-8.8008	-0.88363	-1.7779	-10.299	93.856
555.71420	-34.089	-8.8008	-0.88362	-1.7614	-10.295	93.149
556.21420	-33.999	-8.8007	-0.88362	-1.7555	-10.287	92.56
556.71420	-33.955	-8.8007	-0.88361	-1.7552	-10.282	91.879
557.21420	-33.573	-8.8008	-0.88362	-1.7322	-10.275	91.236
557.71420	-33.639	-8.8007	-0.8836	-1.738	-10.268	90.611
558.21420	-33.441	-8.8008	-0.88361	-1.7268	-10.261	89.965
558.71420	-33.336	-8.8007	-0.8836	-1.7185	-10.255	89.297
559.21420	-33.24	-8.8006	-0.8836	-1.7161	-10.248	88.778
559.71420	-33.094	-8.8006	-0.88359	-1.7055	-10.24	88.185
560.21420	-33.057	-8.8007	-0.88361	-1.7075	-10.235	87.617
560.71420	-32.773	-8.8007	-0.8836	-1.6919	-10.227	87.053
561.21420	-32.779	-8.8007	-0.8836	-1.692	-10.219	86.47
561.71420	-32.511	-8.8006	-0.88359	-1.6785	-10.209	85.859
562.21420	-32.462	-8.8005	-0.88358	-1.6738	-10.202	85.34
562.71420	-32.247	-8.8005	-0.88357	-1.6664	-10.194	84.755
563.21420	-32.095	-8.8004	-0.88357	-1.657	-10.185	84.261
563.71420	-32.104	-8.8004	-0.88355	-1.6588	-10.179	83.634
564.21420	-31.859	-8.8005	-0.88358	-1.6447	-10.171	83.148
564.71420	-31.82	-8.8004	-0.88357	-1.642	-10.161	82.603
565.21420	-31.657	-8.8003	-0.88355	-1.6371	-10.158	82.064
565.71420	-31.533	-8.8003	-0.88355	-1.6286	-10.151	81.55
566.21420	-31.425	-8.8003	-0.88354	-1.622	-10.144	81.086
566.71420	-31.196	-8.8003	-0.88354	-1.6102	-10.137	80.489
567.21420	-31.233	-8.8003	-0.88355	-1.612	-10.131	80.069
567.71420	-30.944	-8.8002	-0.88354	-1.5995	-10.124	79.546
568.21420	-30.908	-8.8003	-0.88355	-1.5914	-10.116	79.147
568.71420	-30.81	-8.8003	-0.88355	-1.5931	-10.108	78.592
569.21420	-30.67	-8.8002	-0.88353	-1.5807	-10.103	78.171
569.71420	-30.624	-8.8001	-0.88353	-1.5815	-10.098	77.658
570.21420	-30.349	-8.8002	-0.88353	-1.5675	-10.088	77.2
570.71420	-30.351	-8.8001	-0.88352	-1.566	-10.079	76.747
571.21420	-30.115	-8.8001	-0.88351	-1.5558	-10.071	76.297
571.71420	-30.058	-8.8001	-0.88352	-1.552	-10.064	75.903
572.21420	-29.898	-8.8001	-0.88352	-1.5425	-10.056	75.486
572.71420	-29.794	-8.8	-0.88351	-1.5369	-10.047	75.065
573.21420	-29.766	-8.8001	-0.88351	-1.5356	-10.04	74.649
573.71420	-29.445	-8.8001	-0.88351	-1.52	-10.035	74.244
574.21420	-29.64	-8.8	-0.88351	-1.5282	-10.026	73.672
574.71420	-29.367	-8.8001	-0.88352	-1.5194	-10.02	73.236
575.21420	-29.253	-8.8	-0.88351	-1.5092	-10.014	72.91
575.71420	-29.106	-8.8001	-0.88351	-1.5034	-10.007	72.539
576.21420	-28.844	-8.8	-0.88351	-1.489	-10	72.167
576.71420	-28.885	-8.8001	-0.88352	-1.4904	-9.994	71.747
577.21420	-28.641	-8.8	-0.8835	-1.4809	-9.9856	71.223
577.71420	-28.649	-8.8	-0.88351	-1.4774	-9.9771	70.972
578.21420	-28.479	-8.8001	-0.88352	-1.4735	-9.9718	70.431
578.71420	-28.363	-8.8	-0.88352	-1.4645	-9.9658	70.11
579.21420	-28.402	-8.8	-0.8835	-1.4661	-9.958	69.701
579.71420	-28.166	-8.7999	-0.88349	-1.454	-9.9497	69.296
580.21420	-28.046	-8.7999	-0.88349	-1.4487	-9.9428	68.973
580.71420	-27.904	-8.8	-0.8835	-1.4417	-9.9322	68.675
581.21420	-27.852	-8.7999	-0.88349	-1.4363	-9.9254	68.337
581.71420	-27.675	-8.8	-0.8835	-1.4307	-9.9186	67.959
582.21420	-27.592	-8.8	-0.8835	-1.422	-9.9101	67.613
582.71420	-27.524	-8.8	-0.88349	-1.4177	-9.9033	67.289
583.21420	-27.256	-8.8	-0.88349	-1.4079	-9.8961	66.943
583.71420	-27.289	-8.7999	-0.88347	-1.4083	-9.8873	66.624
584.21420	-27.134	-8.7999	-0.88348	-1.4017	-9.8799	66.308
584.71420	-27.061	-8.7998	-0.88347	-1.3949	-9.8742	65.979
585.21420	-26.838	-8.7998	-0.88347	-1.3851	-9.8702	65.644
585.71420	-26.639	-8.7998	-0.88347	-1.3778	-9.8608	65.354
586.21420	-26.785	-8.7998	-0.88346	-1.381	-9.8545	65.021
586.71420	-26.491	-8.7999	-0.88348	-1.368	-9.8471	64.735
587.21420	-26.484	-8.7999	-0.88348	-1.3679	-9.8393	64.419
587.71420	-26.294	-8.7998	-0.88347	-1.3589	-9.8329	64.111
588.21420	-26.167	-8.7998	-0.88346	-1.3506	-9.8243	63.849
588.71420	-26.24	-8.7998	-0.88347	-1.3526	-9.8211	63.613
589.21420	-26.026	-8.7999	-0.88347	-1.3409	-9.8144	63.25
589.71420	-26.021	-8.7998	-0.88347	-1.3424	-9.8062	62.975
590.21420	-25.752	-8.7998	-0.88347	-1.3303	-9.7978	62.651
590.71420	-25.712	-8.7999	-0.88348	-1.3275	-9.7894	62.451
591.21420	-25.743	-8.8	-0.8835	-1.3282	-9.7837	62.2
591.71420	-25.348	-8.7999	-0.88347	-1.3084	-9.7753	61.864
592.21420	-25.573	-8.7999	-0.88349	-1.3199	-9.7673	61.594
592.71420	-25.066	-8.8	-0.8835	-1.2961	-9.7591	61.385
593.21420	-25.128	-8.7999	-0.88349	-1.296	-9.7525	61.092
593.71420	-25.055	-8.7998	-0.88347	-1.2933	-9.7443	60.82
594.21420	-24.906	-8.7998	-0.88347	-1.2846	-9.7367	60.577
594.71420	-24.879	-8.7998	-0.88348	-1.2841	-9.7326	60.275
595.21420	-24.713	-8.7998	-0.88347	-1.2748	-9.7265	60.005
595.71420	-24.679	-8.7998	-0.88347	-1.2746	-9.7189	59.726
596.21420	-24.399	-8.7998	-0.88346	-1.2608	-9.7133	59.526
596.71420	-24.493	-8.7997	-0.88345	-1.2625	-9.7039	59.182
597.21420	-24.404	-8.7998	-0.88347	-1.2619	-9.6985	59.048
597.71420	-24.192	-8.7998	-0.88348	-1.249	-9.6925	58.699
598.21420	-24.184	-8.7998	-0.88346	-1.2488	-9.6839	58.567
598.71420	-23.976	-8.7997	-0.88345	-1.24	-9.6781	58.368
599.21420	-24.042	-8.7998	-0.88347	-1.2389	-9.672	58.008
599.71420	-23.911	-8.7998	-0.88347	-1.2344	-9.6643	57.807
600.21420	-23.785	-8.7998	-0.88348	-1.2264	-9.6553	57.681
600.71420	-23.846	-8.7998	-0.88348	-1.2324	-9.6484	57.299
601.21420	-23.518	-8.7998	-0.88347	-1.2122	-9.6398	57.118
