Time(sec)	Force(kgf)	LGauge(mm)	Strain	Stress(MPa)	Stroke(mm)	TC1(C)
0.00000	-187.63	-1.7391	-0.29087	-20.693	-0.0071975	25.74
1.00000	-187.58	-0.075525	-0.012601	-23.3	-0.0071523	25.762
2.00000	-187.93	-0.0036204	-0.00056755	-23.468	-0.0077099	25.791
3.00000	-188.4	-0.00062018	-5.3769e-05	-23.522	-0.0080288	25.762
4.00000	-188.58	-0.0005196	-3.5125e-05	-23.539	-0.0083416	25.749
5.00000	-188.67	-0.00062804	-4.1304e-05	-23.557	-0.0087691	25.762
6.00000	-192.07	0.00050303	3.4442e-05	-23.987	-0.0090374	25.849
7.00000	-190.54	0.0059218	0.00039432	-23.803	-0.009199	27.265
8.00000	-189.87	0.013728	0.00091277	-23.723	-0.0093377	33.896
9.00000	-178.94	0.014617	0.00097257	-22.361	-0.0095264	45.779
10.00000	-169.95	0.014443	0.00096184	-21.248	-0.0096349	55.714
11.00000	-167.9	0.014401	0.00095895	-20.987	-0.0092323	60.088
12.00000	-166.99	0.014363	0.00095464	-20.865	-0.0088597	61.343
13.00000	-168.72	0.014634	0.00097464	-21.088	-0.0086068	61.513
14.00000	-189.31	0.016064	0.0010703	-23.659	-0.0075574	62.34
15.00000	-190.09	0.025663	0.0017111	-23.764	-0.0070533	67.356
15.49640	-189.74	0.028121	0.0018748	-23.727	-0.0062553	72.672
16.49640	-175.07	0.028478	0.0018963	-21.908	-0.0049318	85.386
17.49640	-167.61	0.028359	0.0018916	-20.966	-0.0040679	94.293
18.49640	-165.29	0.028318	0.0018893	-20.669	-0.0027887	97.473
19.49640	-164.19	0.028397	0.0018934	-20.538	-0.00088438	97.942
19.61510	-164.26	0.028433	0.0018963	-20.545	-0.00067563	97.92
20.61510	-173.86	0.028736	0.001917	-21.75	0.00090137	97.62
21.61510	-191.04	0.033779	0.002252	-23.91	-0.00072953	99.084
22.61510	-191.17	0.042561	0.002837	-23.933	-0.00085772	106.79
23.61510	-178	0.043588	0.0029038	-22.282	-0.0018488	119.96
24.61510	-166.62	0.04329	0.0028834	-20.865	-0.0023685	130.45
25.61510	-163.99	0.042998	0.0028639	-20.543	-0.0042876	134.55
26.61510	-162.96	0.042709	0.0028451	-20.409	-0.0015885	135.01
27.61510	-164.84	0.042835	0.0028532	-20.632	-0.0012372	134.18
28.61510	-189.65	0.0438	0.002916	-23.739	-0.0012198	134.28
29.61510	-191.86	0.054345	0.0036152	-24.04	-0.00041526	139.53
30.61510	-187.06	0.057939	0.0038553	-23.444	0.00023955	151.84
31.61510	-168.33	0.057632	0.003836	-21.092	0.00020364	164.63
32.61510	-163.56	0.057098	0.0037988	-20.504	-6.3718e-05	171.12
33.61510	-161.51	0.056476	0.0037585	-20.251	0.00075863	172.25
34.61510	-160.46	0.056155	0.0037358	-20.115	0.00049259	171.31
35.61510	-180	0.056284	0.0037454	-22.554	0.00062239	170.31
36.61510	-191.61	0.064329	0.0042789	-24.032	0.00068723	172.73
37.61510	-191.91	0.072134	0.0047996	-24.083	0.0014492	182.95
38.61510	-174.49	0.072557	0.0048266	-21.894	0.0017833	196.93
39.61510	-164.69	0.071901	0.0047833	-20.657	0.002032	206.56
40.61510	-161.34	0.071089	0.0047291	-20.238	-0.00059537	209.31
41.61510	-159.17	0.070494	0.0046902	-19.978	-0.0022408	208.67
42.61510	-168.57	0.070514	0.0046916	-21.146	-0.0031174	207.08
43.61510	-191.95	0.074598	0.0049636	-24.091	-0.0039578	207.37
44.61510	-192.63	0.085947	0.0057171	-24.2	-0.0038262	214.54
45.61510	-185.49	0.088586	0.0058903	-23.302	-0.0018594	228.34
46.61510	-166.7	0.087839	0.0058406	-20.938	-0.0023477	240.93
47.61510	-161.69	0.086866	0.0057772	-20.301	-0.0050609	246.53
48.61510	-158.85	0.08607	0.005725	-19.943	-0.0061892	246.84
49.61510	-158.15	0.085709	0.0057005	-19.862	-0.0020335	244.89
50.61510	-183.97	0.086302	0.0057406	-23.11	-0.0016852	243.45
51.61510	-193.39	0.096754	0.0064328	-24.304	-0.0043005	246.71
52.61510	-193.64	0.10544	0.0070052	-24.34	-0.0063492	257.78
53.61510	-174.06	0.10626	0.007059	-21.887	-0.0059453	272.63
54.61510	-162.59	0.10449	0.0069417	-20.45	-0.0030425	283.28
55.61510	-158.54	0.10307	0.0068486	-19.934	-0.0028776	286.6
56.52200	-156.37	0.10203	0.0067789	-19.654	-0.004233	285.67
57.52200	-159.04	0.1016	0.0067491	-19.993	-0.0054398	282.94
58.52200	-186.83	0.10303	0.0068455	-23.494	-0.0047562	281.6
58.76130	-191.41	0.10497	0.0069732	-24.07	-0.0045867	281.94
59.76130	-194.77	0.11767	0.0078122	-24.508	-0.0062313	288.37
60.76130	-191.97	0.1225	0.0081329	-24.164	-0.0065849	301.81
61.76130	-168.01	0.12185	0.0080892	-21.145	-0.0072528	316.02
62.76130	-159.44	0.11989	0.0079605	-20.067	-0.0080673	324.3
63.76130	-156.17	0.1182	0.0078493	-19.661	-0.0081358	325.82
64.76130	-154.92	0.11646	0.007735	-19.498	-0.0086095	324
65.76130	-169.84	0.11616	0.0077141	-21.377	-0.0091077	320.96
66.76130	-192.45	0.12046	0.0080013	-24.222	-0.0073813	321.48
67.76130	-195.55	0.13147	0.0087302	-24.629	-0.0048775	328.62
68.76130	-190.5	0.13583	0.0090189	-24.006	-0.0035117	342.71
69.76130	-166.87	0.13463	0.008937	-21.022	-0.0022579	357.29
70.76130	-158.84	0.1322	0.0087771	-20.005	-0.0026284	365.34
71.76130	-155.91	0.13024	0.0086478	-19.637	-0.00079159	366.04
72.76130	-154.82	0.12817	0.0085101	-19.501	8.4621e-05	363.1
73.76130	-173.53	0.12786	0.0084904	-21.855	-0.0016749	359.55
74.76130	-194.59	0.13419	0.008911	-24.511	-0.0039227	359.89
75.76130	-196.18	0.14577	0.0096749	-24.735	-0.0039757	368.43
76.76130	-190.05	0.14928	0.0099058	-23.974	-0.0048294	383.5
77.76130	-166.31	0.14777	0.0098059	-20.972	-0.0050256	397.25
78.76130	-158.22	0.14491	0.0096148	-19.944	-0.006689	403.65
79.76130	-155.82	0.14208	0.0094289	-19.636	-0.0038589	403.26
80.76130	-156.28	0.14017	0.0093028	-19.695	-0.0022254	399.76
81.76130	-183.26	0.14089	0.0093495	-23.105	-0.002316	397.07
82.76130	-197.08	0.15174	0.010066	-24.859	-0.0029912	399.8
83.76130	-197.2	0.16313	0.010818	-24.887	-0.0039644	410.25
84.76130	-189.36	0.16623	0.011021	-23.911	-0.0037965	424.86
85.76130	-166.54	0.1645	0.010906	-21.024	-0.0045546	436.75
86.76130	-158.76	0.16127	0.010693	-20.041	-0.0041914	441.74
87.76130	-156.49	0.15816	0.010489	-19.741	-0.0049186	440.88
88.76130	-167.89	0.15712	0.010421	-21.181	-0.0054883	437.71
89.76130	-193.09	0.16125	0.010693	-24.376	-0.0053028	436.95
90.76130	-198.14	0.17404	0.011536	-25.037	-0.0054821	442.68
91.76130	-197.96	0.18203	0.012066	-25.021	-0.0060714	454.6
92.76130	-180.35	0.18318	0.01214	-22.787	-0.0059897	467.8
93.76130	-163.23	0.18011	0.01194	-20.627	-0.0059065	476.39
94.76130	-158.03	0.17666	0.011709	-19.97	-0.0055959	478.63
95.76130	-159.87	0.17471	0.011582	-20.196	-0.0030504	476.45
96.76130	-185.41	0.17551	0.011636	-23.414	0.001504	474.59
97.47710	-197.3	0.18144	0.012025	-24.936	0.0034115	476.18
98.47710	-199.23	0.19204	0.012724	-25.196	0.0049087	484.2
98.50280	-199.24	0.19222	0.012735	-25.196	0.004892	484.47
99.50280	-195.81	0.19563	0.01296	-24.762	0.0051978	497.17
100.50280	-172.28	0.1951	0.012926	-21.786	0.0059688	508.33
101.50280	-160.86	0.19154	0.012692	-20.344	0.0076466	514.21
102.50280	-157.88	0.18814	0.012466	-19.966	0.0093518	514.17
103.50280	-172.52	0.18756	0.012429	-21.812	0.010156	511.74
104.50280	-195.07	0.19164	0.012697	-24.667	0.011791	511.61
105.50280	-199.88	0.20322	0.013456	-25.285	0.01244	517.28
106.50280	-199.66	0.21008	0.013908	-25.277	0.01226	528.2
107.50280	-186.44	0.2108	0.013954	-23.609	0.0089658	540.27
108.50280	-166.49	0.20836	0.013795	-21.074	0.007089	548.93
109.50280	-159.18	0.20375	0.013493	-20.142	0.0068648	552.12
110.50280	-161.56	0.2016	0.01335	-20.448	0.0048364	551.04
111.50280	-185.6	0.20223	0.013392	-23.495	0.0050006	549.87
112.50280	-199.37	0.20942	0.013867	-25.239	0.0094167	552.85
113.50280	-200.54	0.21664	0.014341	-25.394	0.012211	561.09
114.50280	-193.9	0.218	0.014431	-24.572	0.012053	572.37
115.50280	-173.57	0.21742	0.014391	-21.993	0.0097997	582.16
116.50280	-161.62	0.21321	0.014117	-20.466	0.0091683	587.42
117.50280	-159.45	0.20972	0.013887	-20.185	0.010158	588.13
118.50280	-177.4	0.20939	0.013866	-22.461	0.010557	587.16
119.50280	-195.93	0.21327	0.01412	-24.815	0.010243	588.43
120.50280	-201.52	0.22092	0.014624	-25.531	0.012634	593.96
121.50280	-200.49	0.22446	0.014858	-25.401	0.018374	603.37
122.50280	-186.94	0.22456	0.014864	-23.696	0.018884	613.8
123.50280	-170.73	0.22318	0.01477	-21.637	0.018734	621.82
124.50280	-161.79	0.21962	0.014537	-20.498	0.017426	626.23
125.50280	-161.26	0.21722	0.01438	-20.426	0.018887	627.52
126.50280	-177.13	0.21724	0.014382	-22.434	0.019127	627.93
127.50280	-192.7	0.21909	0.014502	-24.414	0.019186	630.42
128.50280	-199.05	0.22193	0.014688	-25.223	0.019421	636.39
129.50280	-195.41	0.22239	0.014719	-24.756	0.018576	644.6
130.50280	-181.05	0.22225	0.014709	-22.939	0.018696	653.25
131.50280	-168.42	0.22102	0.014628	-21.34	0.018461	660.01
132.50280	-161.5	0.21864	0.01447	-20.462	0.018265	664.35
133.50280	-160.99	0.21752	0.014398	-20.389	0.018823	666.45
134.50280	-172.32	0.21753	0.014397	-21.827	0.018362	668.17
135.50280	-186.55	0.21828	0.014446	-23.633	0.018335	670.93
136.50280	-192.53	0.21988	0.014551	-24.396	0.01886	676.02
137.50280	-190.88	0.22012	0.014567	-24.184	0.018579	682.93
138.40490	-181.67	0.22004	0.014563	-23.013	0.018247	690.05
139.40490	-170.11	0.21992	0.014557	-21.553	0.018467	697.35
140.40490	-162.19	0.21868	0.014476	-20.556	0.018437	703.4
141.40490	-159.7	0.21592	0.014294	-20.225	0.018127	707.98
142.40490	-159.2	0.21381	0.014154	-20.156	0.021688	711.44
143.40490	-160.83	0.21347	0.014134	-20.363	0.023819	714.58
143.54480	-161.49	0.21341	0.014129	-20.446	0.023695	715.04
144.54480	-166.97	0.21345	0.014131	-21.143	0.024742	718.83
145.54480	-169.39	0.21351	0.014137	-21.45	0.024833	723.37
146.54480	-159.62	0.21328	0.014122	-20.211	0.025084	729.01
147.54480	-156.49	0.20273	0.013429	-19.805	0.025454	734.9
148.54480	-155.53	0.19095	0.012654	-19.669	0.025713	739.52
149.54480	-155.79	0.18409	0.012201	-19.689	0.026253	740.77
150.54480	-163.91	0.18306	0.012134	-20.71	0.026889	740.95
151.54480	-185.82	0.18619	0.012338	-23.488	0.026995	742.69
152.54480	-197.26	0.19822	0.01313	-24.958	0.0273	747.5
153.54480	-191.73	0.20812	0.013781	-24.268	0.027132	773.47
154.54480	-158.88	0.18881	0.01251	-20.086	0.02752	804.77
155.54480	-155.93	0.17001	0.011271	-19.695	0.027753	815.99
156.54480	-156.04	0.15652	0.010381	-19.688	0.027407	814.34
157.54480	-156.09	0.14565	0.0096629	-19.676	0.026911	806.54
158.54480	-155.98	0.13598	0.0090245	-19.65	0.026901	796.2
159.54480	-171.32	0.13236	0.0087848	-21.582	0.026159	787.7
160.54480	-143.71	0.14532	0.0096384	-18.12	0.026705	788.71
161.54480	-105.22	0.16413	0.010881	-13.278	0.026454	795.67
162.54480	-103.7	0.17485	0.011587	-13.093	0.026694	805.67
163.54480	-103.87	0.17998	0.011926	-13.127	0.02688	815.32
164.54480	-104.87	0.18142	0.012021	-13.256	0.027348	822.58
165.54480	-105.2	0.18264	0.012104	-13.292	0.027063	827.47
166.54480	-105.08	0.18545	0.012289	-13.283	0.027646	831.36
167.54480	-105.06	0.18996	0.012587	-13.29	0.027877	835.19
168.54480	-105.09	0.19573	0.012966	-13.296	0.028266	839.84
169.54480	-105.11	0.2014	0.013341	-13.303	0.028219	844.96
170.54480	-105.21	0.2063	0.013663	-13.319	0.027987	850.46
171.54480	-105.36	0.21074	0.013955	-13.345	0.028691	855.91
172.54480	-105.64	0.21472	0.014215	-13.385	0.029248	861.15
173.54480	-105.84	0.21824	0.014448	-13.408	0.029611	866.13
174.54480	-105.69	0.22215	0.014705	-13.394	0.02958	871.02
175.54480	-105.65	0.22621	0.014972	-13.394	0.03006	875.99
176.54480	-105.6	0.23028	0.015238	-13.392	0.030076	881.03
177.54480	-105.62	0.23421	0.015496	-13.394	0.03036	886.12
178.54480	-105.64	0.23779	0.01573	-13.398	0.03063	891.04
179.34810	-105.7	0.24075	0.015925	-13.413	0.030696	894.99
180.34810	-105.86	0.24427	0.016156	-13.432	0.030752	900.06
181.34810	-105.88	0.24765	0.016376	-13.438	0.031003	904.96
182.34810	-105.67	0.25127	0.016613	-13.416	0.031001	909.97
182.58640	-105.76	0.25191	0.016655	-13.423	0.030827	911.14
183.58640	-105.88	0.25503	0.016857	-13.445	0.031238	916.16
184.58640	-105.88	0.25854	0.017088	-13.448	0.03192	921.18
185.58640	-106.05	0.26154	0.017283	-13.476	0.031653	926.3
186.58640	-106.18	0.26474	0.017494	-13.491	0.032075	931.28
187.58640	-106.03	0.26714	0.017651	-13.479	0.031788	936.32
188.58640	-106.13	0.26979	0.017826	-13.496	0.032209	941.24
189.58640	-106.29	0.27216	0.017981	-13.515	0.032459	946.07
190.58640	-106.34	0.27491	0.018163	-13.521	0.032488	950.95
191.58640	-106.24	0.27737	0.018324	-13.507	0.03217	955.96
192.58640	-106.25	0.27965	0.018472	-13.513	0.032788	960.95
193.58640	-106.51	0.2816	0.018599	-13.552	0.033106	965.93
194.58640	-106.79	0.28366	0.018736	-13.587	0.033398	970.89
195.58640	-106.76	0.28527	0.018842	-13.584	0.033436	975.66
196.58640	-106.71	0.28677	0.018942	-13.575	0.033646	980.44
197.58640	-106.63	0.28856	0.019059	-13.575	0.033305	985.47
198.58640	-106.73	0.29044	0.01918	-13.584	0.033316	990.61
199.58640	-107.21	0.29183	0.01927	-13.641	0.034	995.88
200.58640	-107.11	0.2932	0.019359	-13.632	0.034042	1001
201.58640	-107.28	0.29463	0.019454	-13.663	0.034056	1005.9
202.58640	-107.38	0.29563	0.019518	-13.677	0.034062	1011.1
203.58640	-108.49	0.29611	0.019551	-13.814	0.034467	1016.2
204.58640	-107.96	0.29659	0.019581	-13.745	0.034247	1021.3
205.58640	-108.58	0.29685	0.019599	-13.827	0.034173	1026.2
206.58640	-110.01	0.29706	0.019612	-14.01	0.035171	1030.9
207.58640	-108	0.29885	0.019729	-13.758	0.034679	1036
208.58640	-107.96	0.29978	0.019791	-13.746	0.034465	1041
209.58640	-108.19	0.30037	0.019827	-13.781	0.034654	1046
210.58640	-108.65	0.30071	0.019849	-13.841	0.034696	1051
211.58640	-109.15	0.30095	0.019865	-13.906	0.035393	1056
212.58640	-109.52	0.30104	0.01987	-13.944	0.035353	1061
213.58640	-109.15	0.30119	0.019882	-13.901	0.034786	1066
214.58640	-108.79	0.30125	0.019884	-13.861	0.035257	1070.9
215.58640	-108.89	0.30135	0.019893	-13.871	0.035849	1076
216.58640	-107.59	0.30128	0.019889	-13.702	0.035655	1080.9
217.58640	-106.94	0.30135	0.019892	-13.625	0.035132	1085.8
218.58640	-106.16	0.30124	0.019884	-13.528	0.035146	1090.7
219.58640	-105.9	0.3013	0.01989	-13.486	0.035421	1095.7
220.39320	-105.17	0.30128	0.019888	-13.392	0.035117	1099.9
221.39320	-103.8	0.30128	0.01989	-13.224	0.034848	1105.1
221.71680	-103.45	0.30127	0.019889	-13.174	0.034983	1106.8
222.71680	-101.62	0.30128	0.01989	-12.946	0.034939	1111.9
223.71680	-100.39	0.30132	0.019892	-12.788	0.035502	1116.7
224.71680	-99.919	0.30131	0.019891	-12.724	0.035866	1121.8
225.71680	-98.433	0.30122	0.019884	-12.535	0.035625	1126.9
226.71680	-96.969	0.30122	0.019886	-12.354	0.035948	1131.9
227.71680	-96.447	0.30129	0.01989	-12.285	0.035854	1136.8
228.71680	-95.845	0.30118	0.019882	-12.21	0.035709	1141.7
229.71680	-95.047	0.30118	0.019882	-12.105	0.035652	1146.6
230.71680	-93.762	0.30105	0.019873	-11.946	0.036051	1151.6
231.71680	-92.737	0.30101	0.019869	-11.814	0.03564	1156.4
232.71680	-92.068	0.30095	0.019864	-11.724	0.035345	1161.4
233.71680	-90.717	0.30074	0.019853	-11.558	0.035167	1166.5
234.71680	-89.648	0.30077	0.019853	-11.421	0.035296	1171.5
235.71680	-89.555	0.30087	0.019858	-11.407	0.035714	1176.6
236.71680	-88.067	0.30062	0.019842	-11.215	0.03545	1181.7
237.71680	-87.046	0.30058	0.019841	-11.096	0.035588	1186.7
238.71680	-86.423	0.30028	0.019819	-11.014	0.035778	1191.5
239.71680	-85.87	0.30039	0.019827	-10.931	0.035786	1196.6
240.71680	-83.025	0.29972	0.019787	-10.575	0.035121	1201.2
241.71680	-78.591	0.29703	0.019609	-10.015	0.03563	1202.7
242.71680	-75.195	0.29508	0.019482	-9.5723	0.035414	1202.2
243.71680	-73.498	0.2943	0.019434	-9.353	0.035798	1201.1
244.71680	-73.551	0.29427	0.019431	-9.3696	0.035581	1200.5
245.71680	-73.738	0.29416	0.019422	-9.3881	0.035627	1200.2
246.71680	-72.611	0.29391	0.019407	-9.2417	0.035921	1200.2
247.71680	-71.899	0.29397	0.01941	-9.1554	0.036339	1200.1
248.71680	-72.387	0.29396	0.01941	-9.2191	0.035936	1200.2
249.71680	-72.194	0.29375	0.019397	-9.1894	0.035773	1200.2
250.71680	-72.351	0.29362	0.01939	-9.2056	0.036028	1200.3
251.71680	-71.562	0.29356	0.019384	-9.1127	0.03615	1200.4
252.71680	-71.345	0.29346	0.019377	-9.0829	0.036156	1200.3
253.71680	-71.258	0.29328	0.019367	-9.0664	0.036084	1200.2
254.71680	-71.155	0.29336	0.01937	-9.0587	0.036293	1200.2
255.71680	-70.446	0.29325	0.019361	-8.9679	0.03637	1200.2
256.71680	-70.061	0.29315	0.019356	-8.9205	0.03598	1200.1
257.71680	-70.832	0.29312	0.019353	-9.0158	0.035499	1200
258.71680	-70.42	0.29315	0.019355	-8.9635	0.035981	1200
259.71680	-70.003	0.29308	0.019351	-8.9145	0.035701	1200.1
260.71680	-69.742	0.29317	0.019356	-8.8794	0.035463	1200.1
261.31910	-69.427	0.29321	0.019359	-8.8352	0.036039	1200.1
262.31910	-70.451	0.29308	0.019349	-8.9755	0.036022	1200.1
262.34440	-70.417	0.29308	0.019349	-8.9714	0.036044	1200.1
263.34440	-69.512	0.293	0.019343	-8.8503	0.03636	1200.5
264.34440	-70.646	0.29187	0.019271	-8.9884	0.036639	1200.6
265.34440	-70.238	0.29103	0.019216	-8.9405	0.036463	1200.5
266.34440	-69.973	0.29046	0.019179	-8.9099	0.036161	1200.3
267.34440	-69.745	0.28985	0.019139	-8.8764	0.036348	1200.1
268.34440	-69.685	0.28887	0.019076	-8.8691	0.03632	1199.9
269.34440	-68.838	0.28855	0.019055	-8.762	0.036221	1199.8
270.34440	-68.836	0.2882	0.019032	-8.7605	0.036122	1199.9
271.34440	-68.095	0.2881	0.019026	-8.6624	0.036121	1200.1
272.34440	-68.798	0.28734	0.018977	-8.7534	0.036445	1200.2
273.34440	-68.68	0.28667	0.018935	-8.7448	0.036765	1200.1
274.34440	-68.008	0.28654	0.018926	-8.6557	0.036663	1200.1
275.34440	-67.688	0.28643	0.018918	-8.6108	0.036579	1200.1
276.34440	-68.23	0.2859	0.018882	-8.6772	0.03625	1200.1
277.34440	-67.417	0.28575	0.018873	-8.5823	0.036349	1200
278.34440	-67.103	0.28573	0.018872	-8.5396	0.036682	1199.6
279.34440	-68.51	0.28575	0.018873	-8.7144	0.036585	1199.4
280.34440	-69.932	0.28572	0.01887	-8.9018	0.037287	1199.5
281.34440	-70.138	0.28575	0.01887	-8.9255	0.036598	1199.8
282.34440	-69.408	0.28567	0.018867	-8.8327	0.036987	1199.9
283.34440	-69.114	0.28553	0.018857	-8.788	0.036774	1200
284.34440	-67.983	0.28564	0.018862	-8.6479	0.036845	1200.1
285.34440	-67.283	0.28558	0.01886	-8.5664	0.036819	1200.2
286.34440	-66.981	0.28556	0.018858	-8.5264	0.036854	1200.1
287.34440	-66.877	0.28551	0.018854	-8.5138	0.036733	1200
288.34440	-67.795	0.28517	0.018829	-8.6313	0.036987	1199.9
289.34440	-67.646	0.28523	0.018836	-8.6162	0.037107	1199.9
290.34440	-67.486	0.28508	0.018828	-8.5878	0.036638	1200
291.34440	-67.101	0.2851	0.018828	-8.533	0.03736	1200.1
292.34440	-66.008	0.28497	0.018818	-8.3954	0.03708	1200.2
293.34440	-67.653	0.28419	0.018769	-8.6122	0.037256	1200.1
294.34440	-67.798	0.28392	0.018752	-8.6254	0.037121	1199.8
295.34440	-67.122	0.28397	0.018756	-8.535	0.03666	1199.8
296.34440	-66.704	0.28382	0.018745	-8.4801	0.037288	1200
297.34440	-65.659	0.28373	0.018741	-8.3573	0.037638	1200
298.34440	-67.168	0.28264	0.018668	-8.5465	0.036274	1200.2
299.34440	-67.048	0.28199	0.018626	-8.5208	0.036984	1200.1
300.34440	-67.351	0.28096	0.01856	-8.5589	0.036994	1200.1
301.34440	-66.344	0.28094	0.018558	-8.4394	0.036818	1200.2
302.34440	-66.868	0.27991	0.01849	-8.5069	0.037028	1200.1
302.36210	-66.841	0.2799	0.01849	-8.5025	0.037045	1200.1
303.36210	-66.361	0.27921	0.018445	-8.4387	0.037272	1200
304.36210	-65.503	0.27928	0.018449	-8.3262	0.03654	1200.1
305.36210	-66.595	0.27826	0.018384	-8.4728	0.037217	1200.1
306.36210	-66.642	0.27713	0.018309	-8.482	0.037329	1200.1
307.36210	-66.287	0.27643	0.018263	-8.4289	0.036865	1200.1
308.36210	-66.151	0.27563	0.018209	-8.4051	0.036875	1200
309.36210	-66.356	0.27485	0.018157	-8.4345	0.037037	1200
310.36210	-66.495	0.27361	0.018075	-8.4571	0.037193	1200.1
311.36210	-66.468	0.2726	0.018009	-8.4532	0.037675	1200.1
312.36210	-66.331	0.27152	0.01794	-8.4303	0.037231	1200.4
313.36210	-66.134	0.26976	0.017823	-8.4047	0.037415	1200.5
314.36210	-65.856	0.26854	0.017744	-8.3732	0.037528	1200.6
315.36210	-66.034	0.26718	0.017655	-8.3974	0.03752	1200.6
316.36210	-66.072	0.266	0.01758	-8.3987	0.037176	1200.5
317.36210	-65.624	0.26506	0.017517	-8.3394	0.037122	1200.4
318.36210	-65.651	0.26356	0.017421	-8.3426	0.036796	1200.6
319.36210	-65.612	0.26263	0.017358	-8.3386	0.037234	1200.7
320.36210	-65.72	0.26159	0.017292	-8.3549	0.037558	1200.7
321.36210	-65.534	0.26004	0.01719	-8.3258	0.037103	1200.5
322.36210	-65.336	0.25877	0.017107	-8.2959	0.037237	1200.2
323.36210	-65.502	0.25827	0.017073	-8.3194	0.036604	1200.2
324.36210	-64.306	0.25762	0.017032	-8.1734	0.036787	1200.2
325.36210	-65.584	0.256	0.016926	-8.3281	0.037971	1200.1
326.36210	-65.621	0.25497	0.016857	-8.3267	0.037594	1200.1
327.36210	-64.793	0.25455	0.01683	-8.2239	0.037899	1200.1
328.36210	-65.454	0.25337	0.016754	-8.3134	0.037683	1199.9
329.36210	-65.057	0.25271	0.016709	-8.2646	0.038442	1199.9
330.36210	-65.59	0.2519	0.016655	-8.3248	0.037523	1199.9
331.36210	-64.336	0.25167	0.01664	-8.1606	0.038141	1199.9
332.36210	-65.323	0.25074	0.016579	-8.2933	0.03843	1199.9
333.36210	-64.332	0.25051	0.016565	-8.1685	0.038414	1199.9
334.36210	-65.528	0.24946	0.016493	-8.3196	0.038073	1199.8
335.36210	-65.728	0.24914	0.016473	-8.343	0.038046	1199.9
336.36210	-64.109	0.24897	0.016461	-8.1368	0.038352	1199.9
337.36210	-65.471	0.24775	0.01638	-8.3129	0.038132	1199.8
338.36210	-64.841	0.24743	0.01636	-8.2296	0.038747	1199.8
339.36210	-65.302	0.24665	0.016309	-8.2812	0.038971	1199.9
340.36210	-64.127	0.24627	0.016284	-8.1328	0.039299	1200.1
341.36210	-65.361	0.24524	0.016217	-8.2951	0.039025	1200.1
342.36210	-65.274	0.24456	0.016172	-8.2832	0.039676	1200
343.29600	-64.515	0.24443	0.016164	-8.1802	0.039417	1200.1
344.29600	-65.238	0.24346	0.016103	-8.2727	0.038798	1199.8
345.29600	-64.267	0.24325	0.01609	-8.1564	0.038823	1199.9
345.62590	-64.763	0.24307	0.016076	-8.2192	0.038894	1199.9
346.62590	-64.27	0.24269	0.016053	-8.161	0.038937	1200.1
347.62590	-65.461	0.24179	0.015995	-8.307	0.039421	1200.1
348.62590	-65.181	0.24131	0.015962	-8.2673	0.039621	1200.1
349.62590	-65.109	0.24081	0.01593	-8.2597	0.040338	1200.1
350.62590	-65.031	0.24033	0.0159	-8.2568	0.040005	1200
351.62590	-65.204	0.2399	0.01587	-8.2744	0.040122	1200.1
352.62590	-65.056	0.23942	0.015839	-8.2486	0.039694	1200
353.62590	-65.334	0.23874	0.015792	-8.2806	0.040107	1199.9
354.62590	-65.233	0.23825	0.015759	-8.2755	0.040623	1199.9
355.62590	-65.131	0.23816	0.015753	-8.2632	0.040137	1199.8
356.62590	-65.689	0.23825	0.015761	-8.3287	0.041149	1199.8
357.62590	-66.262	0.23837	0.015768	-8.4047	0.041097	1199.7
358.62590	-68.029	0.23858	0.015782	-8.634	0.040611	1199.7
359.62590	-69.919	0.23872	0.015788	-8.8744	0.041394	1199.7
360.62590	-72.208	0.23882	0.015795	-9.1564	0.041319	1199.5
361.62590	-74.6	0.23906	0.015811	-9.4644	0.041523	1199.4
362.62590	-76.948	0.23929	0.015825	-9.7656	0.041051	1199.4
363.62590	-77.499	0.23935	0.015829	-9.8283	0.041796	1199.9
364.62590	-75.524	0.23936	0.015831	-9.5814	0.041725	1200.1
365.62590	-73.664	0.2393	0.015828	-9.345	0.041563	1200.2
366.62590	-71.797	0.23938	0.015832	-9.1101	0.042424	1200.5
367.62590	-71.309	0.23939	0.015836	-9.0485	0.043183	1200.6
368.62590	-70.683	0.23928	0.015829	-8.9666	0.043018	1200.2
369.62590	-69.545	0.23914	0.015819	-8.8286	0.042591	1200
370.62590	-69.291	0.23913	0.015816	-8.7957	0.043343	1199.9
371.62590	-68.478	0.23895	0.015805	-8.6824	0.043695	1200.1
372.62590	-66.926	0.2386	0.015782	-8.4872	0.043534	1199.8
373.62590	-66.066	0.23761	0.015718	-8.3787	0.044674	1199.6
374.62590	-65.88	0.23686	0.015669	-8.3546	0.042964	1199.8
375.62590	-65.252	0.23618	0.015625	-8.2702	0.043764	1200
376.62590	-64.773	0.23515	0.015559	-8.2086	0.044848	1200.1
377.62590	-64.493	0.23428	0.0155	-8.1827	0.045552	1200.1
378.62590	-64.445	0.23352	0.01545	-8.1759	0.046009	1200.4
379.62590	-64.01	0.23287	0.015407	-8.112	0.045031	1200.4
380.62590	-65.089	0.23131	0.015305	-8.2509	0.046182	1200.3
381.62590	-64.62	0.23085	0.015275	-8.1992	0.047145	1199.8
382.62590	-64.935	0.23067	0.015262	-8.2345	0.047227	1199.6
383.62590	-64.544	0.23042	0.015245	-8.1788	0.046241	1199.6
384.24520	-64.075	0.23035	0.01524	-8.1218	0.046974	1199.6
385.24520	-63.388	0.22995	0.015214	-8.0333	0.048199	1199.8
385.27290	-63.301	0.22995	0.015214	-8.0263	0.048247	1199.8
386.27290	-66	0.22794	0.015082	-8.3636	0.04853	1200.2
387.27290	-66.119	0.22728	0.015038	-8.3825	0.049053	1200.3
388.27290	-65.161	0.2272	0.015032	-8.2644	0.048718	1199.9
389.27290	-67.047	0.22681	0.015006	-8.4976	0.049464	1199.7
390.27290	-68.355	0.22681	0.015006	-8.6572	0.050387	1200.1
391.27290	-68.673	0.22682	0.015006	-8.7036	0.050882	1200.1
392.27290	-67.935	0.22682	0.01501	-8.6148	0.051251	1200.2
393.27290	-66.312	0.22686	0.015012	-8.4073	0.050898	1200.2
394.27290	-65.546	0.22683	0.01501	-8.3089	0.05143	1200.1
395.27290	-66.233	0.22617	0.014966	-8.3946	0.051125	1200
396.27290	-66.696	0.22427	0.014842	-8.4508	0.051262	1200.4
397.27290	-66.493	0.22285	0.014749	-8.4234	0.052255	1200.5
398.27290	-66.746	0.22132	0.014649	-8.4575	0.052942	1200.5
399.27290	-66.78	0.21981	0.014549	-8.4602	0.052425	1200.4
400.27290	-66.639	0.2183	0.014451	-8.446	0.053817	1200.4
401.27290	-66.856	0.21675	0.01435	-8.4709	0.05521	1200.1
402.27290	-66.515	0.21577	0.014286	-8.4253	0.054131	1199.9
403.27290	-66.565	0.21485	0.014224	-8.4324	0.054128	1199.7
404.27290	-66.292	0.21447	0.014199	-8.4007	0.055249	1199.7
405.27290	-66.183	0.21425	0.014185	-8.3841	0.056575	1199.8
406.27290	-65.974	0.21399	0.014166	-8.3548	0.055428	1200
407.27290	-65.889	0.21388	0.01416	-8.3431	0.056643	1200.1
408.27290	-65.947	0.21405	0.014169	-8.3551	0.056451	1200.2
409.27290	-65.786	0.21379	0.014152	-8.3338	0.05817	1200.1
410.27290	-66.057	0.21403	0.014168	-8.3637	0.056726	1200
411.27290	-66.555	0.21407	0.014172	-8.4285	0.057844	1199.9
412.27290	-67.061	0.21424	0.014181	-8.4989	0.057977	1199.8
413.27290	-68.534	0.21436	0.014189	-8.681	0.058699	1199.8
414.27290	-69.892	0.21458	0.014203	-8.8492	0.059938	1199.8
415.27290	-69.519	0.21472	0.014213	-8.8021	0.058689	1199.7
416.27290	-67.698	0.215	0.014228	-8.5773	0.060246	1199.6
417.27290	-66.716	0.21497	0.014229	-8.4521	0.05966	1199.5
418.27290	-67.018	0.21481	0.014219	-8.4905	0.059644	1199.7
419.27290	-66.103	0.21422	0.014182	-8.3717	0.060212	1200.1
420.27290	-65.113	0.21354	0.014136	-8.2517	0.061221	1200.1
421.27290	-65.832	0.20877	0.013824	-8.341	0.06204	1198.3
422.27290	-66.328	0.20193	0.013375	-8.3944	0.061332	1193.7
423.27290	-66.467	0.19567	0.012963	-8.4107	0.062815	1187.8
424.27290	-66.573	0.19062	0.012629	-8.4155	0.060971	1181.9
425.20880	-66.715	0.18648	0.012359	-8.4337	0.061685	1176.9
426.20880	-66.93	0.18236	0.012086	-8.4564	0.062263	1171.5
427.20880	-67.002	0.17795	0.011796	-8.4616	0.061781	1166.3
428.20880	-67.065	0.17275	0.011454	-8.4683	0.062408	1161.2
429.20880	-67.242	0.1676	0.011115	-8.4929	0.063263	1156.1
430.20880	-67.284	0.16241	0.010771	-8.4925	0.062995	1151
430.34490	-67.248	0.16169	0.010724	-8.4897	0.063751	1150.4
431.34490	-67.348	0.15632	0.01037	-8.501	0.063487	1145.3
432.34490	-67.382	0.15141	0.010045	-8.5008	0.063529	1140.4
433.34490	-67.364	0.14599	0.0096863	-8.4937	0.063229	1135.3
434.34490	-67.528	0.1406	0.0093303	-8.5141	0.063492	1130.3
435.34490	-67.702	0.13505	0.0089622	-8.5299	0.064092	1125.2
436.34490	-67.813	0.12991	0.0086234	-8.5375	0.063994	1120.2
437.34490	-67.958	0.12474	0.0082804	-8.5513	0.064085	1115.2
438.34490	-67.991	0.11995	0.0079654	-8.5571	0.064116	1110.1
439.34490	-68.287	0.11493	0.0076328	-8.5929	0.065141	1105.1
440.34490	-68.32	0.11003	0.0073088	-8.5909	0.064701	1100.2
441.34490	-68.36	0.10513	0.0069842	-8.5902	0.065106	1095.3
442.34490	-68.308	0.10006	0.0066477	-8.5884	0.065931	1090.1
443.34490	-68.417	0.095194	0.0063266	-8.604	0.066004	1085.2
444.34490	-68.438	0.090697	0.0060312	-8.5992	0.064206	1080.2
445.34490	-68.371	0.086675	0.0057637	-8.5861	0.065437	1075.3
446.34490	-68.372	0.082373	0.0054796	-8.5873	0.065474	1070.2
447.34490	-68.526	0.078057	0.0051935	-8.6034	0.065524	1065.1
448.34490	-68.602	0.073814	0.004911	-8.612	0.064903	1060.1
449.34490	-68.565	0.069343	0.004613	-8.6026	0.065554	1055.3
450.34490	-68.554	0.06517	0.0043384	-8.5978	0.066219	1050.3
451.34490	-68.588	0.060886	0.0040529	-8.5998	0.06642	1045.4
452.34490	-68.773	0.056633	0.0037697	-8.6226	0.066621	1040.3
453.34490	-68.839	0.052769	0.0035136	-8.6197	0.066609	1035.2
454.34490	-68.883	0.04895	0.0032603	-8.6241	0.066113	1030.2
455.34490	-68.852	0.044954	0.0029946	-8.6247	0.066996	1025.2
456.34490	-69.142	0.040909	0.002727	-8.6531	0.067159	1020.1
457.34490	-69.034	0.037029	0.0024676	-8.6401	0.066136	1015.1
458.34490	-68.935	0.033547	0.0022353	-8.6232	0.069417	1010.1
459.34490	-68.868	0.029967	0.0019968	-8.6187	0.073152	1005.2
460.34490	-68.897	0.02654	0.0017681	-8.6193	0.07339	1000.2
461.34490	-68.833	0.023062	0.0015364	-8.6076	0.071721	995.18
462.34490	-68.746	0.019958	0.0013292	-8.5978	0.069	990.24
463.34490	-68.521	0.017042	0.0011335	-8.5689	0.07171	985.44
464.34490	-68.401	0.014255	0.00094883	-8.5571	0.072707	980.37
465.34490	-68.373	0.011252	0.00074715	-8.5447	0.072713	975.38
466.25030	-68.233	0.0086422	0.00057515	-8.5218	0.071472	970.83
467.25030	-68.223	0.0061496	0.00040966	-8.5246	0.071237	965.76
468.25030	-68.214	0.0038648	0.0002584	-8.524	0.072477	960.72
469.25030	-68.248	-5.9261e-05	-3.8975e-06	-8.5212	0.07328	955.83
469.48640	-68.296	-0.001143	-7.6605e-05	-8.5324	0.07446	954.55
470.48640	-68.33	-0.0053118	-0.00035225	-8.5269	0.073311	949.62
471.48640	-68.313	-0.0098283	-0.00065279	-8.5204	0.074047	944.56
472.48640	-68.4	-0.01352	-0.00089924	-8.5335	0.07246	939.61
473.48640	-68.43	-0.017619	-0.0011739	-8.5339	0.072228	934.63
474.48640	-68.373	-0.021673	-0.001443	-8.5234	0.071953	929.58
475.48640	-68.218	-0.025327	-0.0016879	-8.502	0.072833	924.49
476.48640	-68.252	-0.029137	-0.0019414	-8.5056	0.070966	919.46
477.48640	-68.317	-0.033187	-0.0022128	-8.5154	0.071176	914.37
478.48640	-68.553	-0.037174	-0.0024774	-8.5345	0.071383	909.41
479.48640	-68.597	-0.041046	-0.0027386	-8.5318	0.071945	904.36
480.48640	-68.567	-0.044671	-0.0029813	-8.5355	0.072652	899.28
481.48640	-68.642	-0.048232	-0.0032197	-8.5434	0.070633	894.3
482.48640	-68.872	-0.052398	-0.0034982	-8.5681	0.071382	889.36
483.48640	-68.867	-0.056627	-0.0037811	-8.5635	0.07263	884.33
484.48640	-68.855	-0.060848	-0.0040634	-8.5661	0.07346	879.34
485.48640	-68.908	-0.065072	-0.0043461	-8.5738	0.073286	874.35
486.48640	-69.004	-0.068748	-0.0045929	-8.5781	0.07106	869.35
487.48640	-69.041	-0.07236	-0.0048355	-8.5769	0.071398	864.44
488.48640	-68.967	-0.075559	-0.0050499	-8.5678	0.071503	859.48
489.48640	-69.142	-0.078728	-0.005263	-8.5901	0.070495	854.51
490.48640	-69.207	-0.08224	-0.0055012	-8.5962	0.071512	849.52
491.48640	-69.255	-0.086298	-0.0057694	-8.5964	0.073194	844.51
492.48640	-69.213	-0.090595	-0.0060583	-8.5892	0.073122	839.61
493.48640	-69.18	-0.094723	-0.0063348	-8.5867	0.072626	834.55
494.48640	-69.278	-0.098717	-0.0066045	-8.5988	0.072641	829.48
495.48640	-69.246	-0.10256	-0.0068594	-8.5859	0.072987	824.59
496.48640	-69.174	-0.10628	-0.0071072	-8.5748	0.072046	819.62
497.48640	-69.18	-0.10966	-0.007336	-8.5806	0.070445	814.71
498.48640	-69.318	-0.11331	-0.0075813	-8.5944	0.069133	809.72
499.48640	-69.386	-0.11703	-0.0078297	-8.5965	0.069526	804.68
500.48640	-69.359	-0.12114	-0.0081054	-8.5846	0.067524	799.62
501.48640	-69.389	-0.12542	-0.0083933	-8.5951	0.067872	794.62
502.48640	-69.511	-0.12973	-0.0086843	-8.6062	0.070103	789.51
503.48640	-69.578	-0.13409	-0.0089753	-8.6062	0.07213	784.5
504.48640	-69.592	-0.13841	-0.0092692	-8.6064	0.072083	779.53
505.48640	-69.475	-0.14277	-0.0095619	-8.5941	0.071871	774.52
506.48640	-69.567	-0.14664	-0.0098233	-8.6025	0.070665	769.46
507.20140	-69.635	-0.14934	-0.010005	-8.6027	0.06993	765.87
508.20140	-69.413	-0.15328	-0.01027	-8.5787	0.069799	760.92
508.62890	-69.518	-0.15499	-0.010385	-8.5899	0.069273	758.78
509.62890	-69.569	-0.15885	-0.010645	-8.5921	0.071722	753.72
510.62890	-69.514	-0.16255	-0.010896	-8.5846	0.073644	748.75
511.62890	-69.454	-0.16611	-0.011136	-8.5741	0.074358	743.72
512.62890	-69.486	-0.16975	-0.011382	-8.5751	0.073335	738.67
513.62890	-69.312	-0.17317	-0.011612	-8.5558	0.074643	733.71
514.62890	-69.373	-0.17662	-0.011846	-8.567	0.074547	728.68
515.62890	-69.307	-0.17979	-0.012059	-8.5505	0.07443	723.7
516.62890	-69.146	-0.18284	-0.012265	-8.5217	0.074959	718.68
517.62890	-69.103	-0.18601	-0.012478	-8.5234	0.074419	713.66
518.62890	-69.078	-0.18914	-0.012688	-8.5227	0.074353	708.66
519.62890	-69.093	-0.19233	-0.012904	-8.5133	0.073269	703.61
520.62890	-69.225	-0.027156	-0.0018196	-8.6279	0.056955	698.85
521.10000	-70.595	-0.0023901	-0.00015842	-8.811	0.070909	697.17
521.60000	-74.481	-0.00091364	-5.8985e-05	-9.2988	0.035892	696.75
522.10000	-79.805	-0.00018223	-8.7936e-06	-9.9598	-0.023504	696.91
522.60000	-84.273	0.00031097	2.3843e-05	-10.523	-0.08347	697.29
523.10000	-87.638	0.00085211	5.8836e-05	-10.947	-0.14721	697.79
523.60000	-90.047	0.0011863	8.089e-05	-11.243	-0.21001	698.26
524.10000	-91.088	0.0015782	0.00010744	-11.376	-0.27073	698.7
524.60000	-91.961	0.0018214	0.00012378	-11.487	-0.33244	698.98
525.10000	-92.347	0.0019816	0.00013676	-11.533	-0.39432	699.08
525.60000	-93.143	0.0022985	0.00015387	-11.634	-0.45489	699.11
526.10000	-94.057	0.0025119	0.00017075	-11.745	-0.51764	699.17
526.60000	-95.154	0.0028802	0.0001955	-11.879	-0.5796	699.21
527.10000	-95.854	0.0033512	0.00022512	-11.97	-0.6402	699.24
527.60000	-97.056	0.0035264	0.00023749	-12.125	-0.70263	699.24
528.10000	-97.718	0.0037894	0.00025193	-12.206	-0.76394	699.26
528.60000	-98.7	0.0041384	0.00028034	-12.33	-0.82471	699.3
529.10000	-99.79	0.0044863	0.00030283	-12.462	-0.88767	699.29
529.60000	-100.85	0.0049466	0.00033099	-12.595	-0.94865	699.3
530.10000	-101.8	0.0054479	0.00036552	-12.708	-1.0103	699.3
530.60000	-102.91	0.0059854	0.00040147	-12.852	-1.0697	699.32
531.10000	-103.89	0.006384	0.00042572	-12.981	-1.1311	699.31
531.60000	-104.85	0.0069755	0.00046747	-13.095	-1.1901	699.29
532.10000	-105.47	0.0077634	0.00051862	-13.174	-1.2525	699.39
532.60000	-105.68	0.0085129	0.00056852	-13.206	-1.3142	699.43
533.10000	-106.13	0.0094353	0.00063098	-13.261	-1.3769	699.42
533.60000	-106.42	0.010143	0.0006777	-13.298	-1.4382	699.51
534.10000	-106.53	0.010799	0.00072373	-13.31	-1.5005	699.72
534.60000	-106.69	0.011489	0.00076566	-13.328	-1.5616	699.6
535.10000	-106.71	0.012015	0.00080133	-13.335	-1.6218	699.69
535.60000	-106.95	0.012524	0.00083344	-13.364	-1.684	699.83
536.10000	-106.99	0.012994	0.0008656	-13.37	-1.7461	700.07
536.60000	-107.55	0.013169	0.0008779	-13.442	-1.8086	700.01
537.10000	-108.17	0.013501	0.00090075	-13.514	-1.8688	700.09
537.60000	-107.66	0.013977	0.00093152	-13.457	-1.9295	700.17
538.10000	-107.76	0.014136	0.00094369	-13.467	-1.9896	700.18
538.60000	-107.65	0.014478	0.00096562	-13.448	-2.052	700.22
539.10000	-107.85	0.014628	0.00097514	-13.481	-2.1124	700.2
539.60000	-108.03	0.014652	0.00097714	-13.504	-2.1739	700.25
540.10000	-107.64	0.014735	0.00098048	-13.454	-2.2358	700.29
540.60000	-107.59	0.014721	0.00098032	-13.45	-2.2967	700.31
541.10000	-106.61	0.014705	0.00098064	-13.326	-2.3584	700.26
541.60000	-107.02	0.014702	0.00098094	-13.377	-2.4197	700.1
542.10000	-145.92	0.020038	0.0013358	-18.245	-2.4806	700.04
542.60000	-383.89	-6.1286e-05	-2.2886e-06	-47.927	-2.5382	701.04
543.10000	-512.41	-0.049577	-0.0033086	-63.767	-2.5994	702.26
543.60000	-585.75	-0.10163	-0.0068002	-72.638	-2.66	702.56
544.10000	-667.43	-0.15126	-0.010136	-82.499	-2.7194	702.29
544.60000	-748.12	-0.2042	-0.013705	-92.139	-2.7811	701.99
545.10000	-807.97	-0.25625	-0.017229	-99.155	-2.8406	701.48
545.60000	-874	-0.31104	-0.02095	-106.86	-2.9036	701.14
546.10000	-925.34	-0.36125	-0.024376	-112.76	-2.9626	700.7
546.60000	-977.4	-0.41554	-0.028093	-118.66	-3.0245	700.63
547.10000	-1026.8	-0.4681	-0.031702	-124.2	-3.0843	700.4
547.60000	-1070	-0.52304	-0.035492	-128.94	-3.1463	700.24
548.10000	-1110.4	-0.57626	-0.039175	-133.31	-3.2078	700.21
548.60000	-1154.5	-0.63017	-0.042918	-138.09	-3.2695	700.15
549.10000	-1186.1	-0.68212	-0.04654	-141.37	-3.3281	700.07
549.60000	-1230.1	-0.73685	-0.050368	-146.05	-3.3897	700.03
550.10000	-1265.7	-0.79127	-0.05419	-149.69	-3.4515	700.02
550.60000	-1296	-0.84434	-0.057932	-152.71	-3.513	700.01
551.10000	-1335.7	-0.89832	-0.061756	-156.79	-3.5721	699.94
551.60000	-1366	-0.95298	-0.065637	-159.72	-3.6335	699.92
552.10000	-1398.2	-1.0088	-0.069626	-162.84	-3.6963	699.78
552.60000	-1423.2	-1.0619	-0.073426	-165.12	-3.7578	699.77
553.10000	-1459.1	-1.1158	-0.077297	-168.64	-3.8185	699.77
553.60000	-1487.1	-1.1687	-0.081117	-171.21	-3.878	699.82
554.10000	-1511.6	-1.2242	-0.085138	-173.33	-3.9398	699.83
554.60000	-1543.4	-1.2791	-0.08913	-176.28	-4.002	699.88
555.10000	-1565.7	-1.3321	-0.093002	-178.14	-4.0624	699.92
555.60000	-1594.8	-1.3844	-0.096833	-180.75	-4.1211	699.72
556.10000	-1624.3	-1.4413	-0.10102	-183.33	-4.1845	699.73
556.60000	-1643.4	-1.496	-0.10506	-184.73	-4.2453	699.73
557.10000	-1664.1	-1.5486	-0.10897	-186.33	-4.3061	699.76
557.60000	-1695.3	-1.6047	-0.11315	-189.04	-4.369	699.73
558.10000	-1719.3	-1.659	-0.1172	-190.94	-4.4301	699.75
558.60000	-1742.1	-1.7144	-0.12137	-192.66	-4.4916	699.76
559.10000	-1756.2	-1.7672	-0.12535	-193.44	-4.5521	699.75
559.60000	-1785.9	-1.8222	-0.12952	-195.9	-4.6139	699.77
560.10000	-1811.6	-1.8767	-0.13366	-197.9	-4.6749	699.75
560.60000	-1834.1	-1.9316	-0.13785	-199.52	-4.735	699.76
561.10000	-1852	-1.9877	-0.14216	-200.6	-4.7972	699.83
561.60000	-1874.2	-2.0407	-0.14623	-202.18	-4.8585	699.8
562.10000	-1892.3	-2.0951	-0.15044	-203.28	-4.9191	699.74
562.60000	-1916	-2.1495	-0.15467	-204.95	-4.9803	699.76
563.10000	-1932.6	-2.2037	-0.15889	-205.86	-5.041	699.73
563.60000	-1951.4	-2.2568	-0.16305	-207	-5.1024	699.89
564.10000	-1973.4	-2.3113	-0.16734	-208.44	-5.1636	699.79
564.60000	-1997	-2.3657	-0.17164	-210.02	-5.2247	699.83
565.10000	-2017.2	-2.4203	-0.17596	-211.23	-5.2857	699.82
565.60000	-2030.5	-2.475	-0.18033	-211.7	-5.3479	699.84
566.10000	-2053.4	-2.5281	-0.18458	-213.18	-5.4086	699.9
566.60000	-2068.9	-2.5825	-0.18894	-213.85	-5.4695	699.93
567.10000	-2091	-2.6371	-0.19335	-215.19	-5.5315	699.91
567.60000	-2114.9	-2.6914	-0.19776	-216.68	-5.5927	699.89
568.10000	-2127.3	-2.7439	-0.20202	-217.02	-5.6537	699.91
568.60000	-2147.3	-2.7987	-0.20651	-218.09	-5.7155	699.82
569.10000	-2166.4	-2.8516	-0.21085	-219.08	-5.7753	699.84
569.60000	-2191.7	-2.9072	-0.21544	-220.62	-5.8381	699.86
570.10000	-2201.8	-2.9591	-0.21974	-220.69	-5.8986	699.86
570.60000	-2232.2	-3.0132	-0.22424	-222.73	-5.9593	699.99
571.10000	-2252.4	-3.0693	-0.22894	-223.69	-6.0227	699.99
571.60000	-2264.6	-3.1226	-0.23341	-223.9	-6.083	699.92
572.10000	-2280.4	-3.1759	-0.2379	-224.45	-6.1436	699.92
572.60000	-2297.8	-3.2277	-0.2423	-225.16	-6.2046	699.96
573.10000	-2321.3	-3.2816	-0.24689	-226.43	-6.2661	699.92
573.60000	-2337.8	-3.3359	-0.25152	-226.98	-6.3277	699.94
574.10000	-2358.8	-3.3905	-0.25623	-227.95	-6.3898	699.89
574.60000	-2367.4	-3.4417	-0.26065	-227.78	-6.4498	699.91
575.10000	-2397.8	-3.4954	-0.2653	-229.63	-6.512	699.91
575.60000	-2411.2	-3.5498	-0.27004	-229.81	-6.5725	699.87
576.10000	-2435.9	-3.6036	-0.27475	-231.08	-6.6338	699.87
576.60000	-2450.7	-3.6561	-0.27937	-231.41	-6.6949	699.85
577.10000	-2469.3	-3.7076	-0.28392	-232.11	-6.7555	699.86
577.60000	-2493	-3.7618	-0.28873	-233.21	-6.8177	699.84
578.10000	-2508.1	-3.8145	-0.29343	-233.53	-6.8783	699.88
578.60000	-2531.5	-3.8676	-0.29819	-234.59	-6.9391	699.91
579.10000	-2541.8	-3.9176	-0.30269	-234.48	-6.9993	699.95
579.60000	-2565.5	-3.9721	-0.30762	-235.51	-7.0615	699.96
580.10000	-2595	-4.0259	-0.31251	-237.05	-7.1239	700
580.60000	-2615.1	-4.0801	-0.31746	-237.71	-7.1855	700.02
581.10000	-2625.3	-4.1321	-0.32224	-237.5	-7.2469	699.99
581.60000	-2651	-4.1837	-0.32699	-238.69	-7.3072	699.94
582.10000	-2675.1	-4.2378	-0.33201	-239.65	-7.3695	699.92
582.60000	-2696.1	-4.2895	-0.33683	-240.37	-7.4296	699.96
583.10000	-2710.8	-4.3426	-0.34179	-240.49	-7.491	699.95
583.60000	-2735	-4.3927	-0.3465	-241.5	-7.5511	699.91
584.10000	-2759.7	-4.4453	-0.35148	-242.46	-7.6122	699.96
584.60000	-2778.1	-4.4982	-0.3565	-242.86	-7.6736	699.98
585.10000	-2797.4	-4.551	-0.36154	-243.31	-7.7341	699.94
585.60000	-2817.1	-4.6023	-0.36647	-243.82	-7.7953	699.97
586.10000	-2854.2	-4.6557	-0.37162	-245.76	-7.8582	699.99
586.60000	-2875.9	-4.7085	-0.37673	-246.38	-7.9194	699.98
587.10000	-2892.9	-4.7598	-0.38173	-246.59	-7.9786	699.96
587.60000	-2910.3	-4.8117	-0.38681	-246.82	-8.04	699.99
588.10000	-2945.3	-4.8626	-0.39182	-248.54	-8.1007	700
588.60000	-2971.8	-4.9164	-0.39714	-249.44	-8.1629	700.06
589.10000	-2995.5	-4.9695	-0.40243	-250.1	-8.2247	700.08
589.60000	-3015.3	-5.0211	-0.40759	-250.47	-8.285	700.06
590.10000	-3041.1	-5.0735	-0.41285	-251.28	-8.3466	700.02
590.60000	-3072.4	-5.1263	-0.41818	-252.52	-8.4074	700.04
591.10000	-3098	-5.1787	-0.4235	-253.28	-8.4685	700
591.60000	-3134.3	-5.2307	-0.4288	-254.88	-8.529	700.02
592.10000	-3149.3	-5.2823	-0.4341	-254.75	-8.5905	700.07
592.60000	-3180.1	-5.3343	-0.43946	-255.87	-8.6517	700.13
593.10000	-3220.1	-5.3852	-0.44475	-257.72	-8.7115	700.1
593.60000	-3248.5	-5.4373	-0.45018	-258.59	-8.7723	700.04
594.10000	-3278.5	-5.4895	-0.45565	-259.55	-8.8337	700
594.60000	-3309.5	-5.5408	-0.46106	-260.59	-8.8957	699.98
595.10000	-3348.1	-5.5924	-0.46653	-262.18	-8.9562	699.95
595.60000	-3372.4	-5.6449	-0.47213	-262.62	-9.0174	699.97
596.10000	-3415.7	-5.6976	-0.47778	-264.5	-9.0795	700.01
596.60000	-3448.9	-5.7494	-0.48336	-265.58	-9.1414	700
597.10000	-3481.6	-5.7998	-0.48882	-266.63	-9.2007	699.97
597.60000	-3517	-5.8516	-0.49448	-267.83	-9.2611	699.97
598.10000	-3552.1	-5.904	-0.50021	-268.95	-9.3228	699.98
598.60000	-3590.3	-5.9558	-0.50592	-270.29	-9.3849	700
599.10000	-3624.4	-6.0068	-0.51158	-271.33	-9.4455	700.02
599.60000	-3664.2	-6.0584	-0.51733	-272.73	-9.5066	700.01
600.10000	-3707.7	-6.111	-0.52324	-274.34	-9.5671	700.03
600.60000	-3744	-6.1629	-0.52909	-275.42	-9.6279	700.01
601.10000	-3779.3	-6.212	-0.53466	-276.46	-9.6874	700.01
601.60000	-3833.8	-6.2632	-0.54051	-278.81	-9.7482	699.94
602.10000	-3878.3	-6.3166	-0.54664	-280.32	-9.8116	699.94
602.60000	-3916.8	-6.3679	-0.55256	-281.44	-9.8718	699.94
603.10000	-3956.7	-6.4184	-0.55842	-282.64	-9.933	699.98
603.60000	-4017.9	-6.47	-0.56447	-285.28	-9.9958	699.99
604.10000	-4052.9	-6.5204	-0.57038	-286.08	-10.054	699.98
604.60000	-4111.5	-6.5722	-0.57652	-288.43	-10.116	699.99
605.10000	-4152.6	-6.623	-0.58255	-289.57	-10.176	699.98
605.60000	-4201.9	-6.6726	-0.5885	-291.27	-10.237	699.95
606.10000	-4260.2	-6.7234	-0.59461	-293.51	-10.297	699.91
606.60000	-4315.7	-6.7748	-0.60084	-295.48	-10.359	699.88
607.10000	-4363.5	-6.8254	-0.60701	-296.93	-10.419	699.81
607.60000	-4421.5	-6.8747	-0.61307	-299.05	-10.48	699.8
608.10000	-4470.4	-6.9234	-0.61908	-300.54	-10.539	699.77
608.60000	-4544.2	-6.9758	-0.62559	-303.53	-10.603	699.85
609.10000	-4602	-7.0258	-0.63184	-305.48	-10.663	699.93
609.60000	-4662	-7.076	-0.63815	-307.5	-10.724	700
610.10000	-4738.1	-7.1256	-0.64443	-310.57	-10.784	700.03
610.60000	-4800.8	-7.1756	-0.65079	-312.68	-10.845	700.07
611.10000	-4869.7	-7.2263	-0.6573	-315.11	-10.906	700.02
611.60000	-4945.2	-7.2762	-0.66374	-317.94	-10.967	700.08
612.10000	-5009.4	-7.3237	-0.66991	-320.09	-11.028	700.05
612.60000	-5076.2	-7.3723	-0.67627	-322.3	-11.087	700.05
613.10000	-5160.5	-7.4232	-0.68297	-325.47	-11.15	699.98
613.60000	-5241.9	-7.4722	-0.68945	-328.46	-11.21	699.85
614.10000	-5308.6	-7.5201	-0.69583	-330.53	-11.27	699.86
614.60000	-5390.6	-7.5679	-0.70223	-333.5	-11.329	699.93
615.10000	-5473.3	-7.6174	-0.70893	-336.35	-11.389	700.14
615.60000	-5559.4	-7.6661	-0.71554	-339.4	-11.449	700.27
616.10000	-5658.1	-7.7149	-0.72222	-343.11	-11.511	699.98
616.60000	-5734.6	-7.7621	-0.72872	-345.5	-11.571	699.81
617.10000	-5824.6	-7.8101	-0.73539	-348.59	-11.632	699.67
617.60000	-5917.7	-7.8584	-0.74212	-351.78	-11.692	699.55
618.10000	-6003.4	-7.9067	-0.7489	-354.47	-11.751	699.59
618.60000	-6074.6	-7.9544	-0.75564	-356.26	-11.812	699.87
619.10000	-6183	-8.0024	-0.76248	-360.15	-11.873	700.15
619.60000	-6276.4	-8.0512	-0.76947	-363.05	-11.932	700.46
620.10000	-6383.6	-8.0998	-0.77649	-366.66	-11.993	700.44
620.60000	-6484.6	-8.1476	-0.78345	-369.88	-12.053	700.41
621.10000	-6573.5	-8.1942	-0.79028	-372.4	-12.112	700.35
621.60000	-6692	-8.2406	-0.79712	-376.53	-12.172	700.17
622.10000	-6805.5	-8.2875	-0.80409	-380.25	-12.232	699.95
622.60000	-6915.7	-8.3334	-0.81095	-383.77	-12.291	699.69
623.10000	-7024.3	-8.3802	-0.81798	-387.07	-12.351	699.58
623.60000	-7153.4	-8.4263	-0.82497	-391.43	-12.411	699.58
624.10000	-7260.2	-8.4722	-0.83197	-394.51	-12.47	699.78
624.60000	-7379	-8.5187	-0.83912	-398.11	-12.529	699.96
625.10000	-7517.8	-8.5647	-0.84624	-402.72	-12.588	700.28
625.25550	-7541.6	-8.5788	-0.84844	-403.11	-12.607	700.31
625.75550	-7273.8	-8.6059	-0.85266	-387.16	-12.629	653.76
626.25550	-6983.7	-8.6123	-0.85368	-371.34	-12.626	597.21
626.75550	-6788.7	-8.6153	-0.85414	-360.8	-12.622	569.39
627.25550	-6621.9	-8.6168	-0.85438	-351.85	-12.616	548.49
627.75550	-6467	-8.6177	-0.85451	-343.58	-12.61	535.17
628.25550	-6310.1	-8.618	-0.85456	-335.23	-12.603	528.87
628.75550	-6130.8	-8.618	-0.85456	-325.7	-12.595	525.69
629.25550	-5968.8	-8.6182	-0.8546	-317.08	-12.588	523.12
629.75550	-5809.8	-8.618	-0.85456	-308.65	-12.581	521.31
630.25550	-5659.4	-8.618	-0.85456	-300.66	-12.574	519.09
630.75550	-5490.5	-8.6174	-0.85447	-291.71	-12.566	515.42
631.25550	-5337.5	-8.6174	-0.85448	-283.58	-12.559	510.53
631.75550	-5194.8	-8.6171	-0.85442	-276.01	-12.552	505.33
632.25550	-5018.4	-8.6163	-0.8543	-266.68	-12.542	499.33
632.75550	-4844.8	-8.6152	-0.85413	-257.49	-12.533	493.33
633.25550	-4682.3	-8.6144	-0.854	-248.89	-12.524	486.98
633.75550	-4515.1	-8.6133	-0.85383	-240.04	-12.515	481.18
634.25550	-4357.9	-8.6124	-0.85369	-231.71	-12.505	475.28
634.75550	-4231.2	-8.6118	-0.8536	-225	-12.499	469.05
635.25550	-4096.4	-8.6106	-0.8534	-217.87	-12.491	463.33
635.75550	-3949.7	-8.6095	-0.85323	-210.11	-12.482	457.24
636.25550	-3820.6	-8.6082	-0.85304	-203.28	-12.475	451.08
636.75550	-3682.2	-8.6064	-0.85276	-195.97	-12.467	445.41
637.25550	-3537.4	-8.6041	-0.8524	-188.33	-12.458	439.8
637.75550	-3389	-8.6013	-0.85197	-180.51	-12.448	433.95
638.25550	-3240.8	-8.5982	-0.85148	-172.7	-12.439	428.47
638.75550	-3098.3	-8.5949	-0.85095	-165.19	-12.429	423.19
639.25550	-2984.8	-8.5924	-0.85056	-159.2	-12.422	417.66
639.75550	-2873.3	-8.5903	-0.85024	-153.31	-12.415	412.5
640.25550	-2738.9	-8.5868	-0.84969	-146.21	-12.406	407.62
640.75550	-2607.4	-8.5832	-0.84913	-139.27	-12.397	402.74
641.25550	-2490.7	-8.5802	-0.84866	-133.1	-12.389	397.77
641.75550	-2374.5	-8.5774	-0.84824	-126.95	-12.381	393.19
642.25550	-2251.1	-8.5738	-0.84766	-120.42	-12.372	388.24
642.75550	-2148.9	-8.5707	-0.84719	-115.01	-12.365	383.75
643.25550	-2031.6	-8.5672	-0.84664	-108.79	-12.357	379.35
643.75550	-1916.2	-8.5635	-0.84606	-102.67	-12.348	375.02
644.25550	-1812.8	-8.5602	-0.84555	-97.177	-12.339	370.77
644.75550	-1708.4	-8.5564	-0.84498	-91.631	-12.331	366.51
645.25550	-1595.8	-8.5521	-0.8443	-85.652	-12.322	362.38
645.75550	-1488	-8.548	-0.84366	-79.915	-12.313	358.4
646.25550	-1372.6	-8.5435	-0.84296	-73.772	-12.304	354.34
646.75550	-1263.6	-8.539	-0.84227	-67.958	-12.295	350.32
647.25550	-1161.8	-8.5347	-0.8416	-62.523	-12.286	346.45
647.75550	-1054.7	-8.5295	-0.8408	-56.806	-12.277	342.41
648.25550	-970.23	-8.5256	-0.84019	-52.291	-12.269	338.59
648.75550	-855.74	-8.5195	-0.83925	-46.161	-12.258	334.86
649.25550	-781.62	-8.5154	-0.83862	-42.194	-12.251	331.17
649.75550	-687.03	-8.5105	-0.83786	-37.114	-12.241	327.64
650.25550	-602.45	-8.5055	-0.83709	-32.568	-12.232	323.84
650.75550	-526	-8.5005	-0.83632	-28.459	-12.223	320.42
651.25550	-441.41	-8.4947	-0.83543	-23.904	-12.212	316.93
651.75550	-370.99	-8.4889	-0.83454	-20.106	-12.203	313.41
652.25550	-312.04	-8.4841	-0.8338	-16.924	-12.194	309.94
652.75550	-251.27	-8.4785	-0.83295	-13.64	-12.184	306.63
653.25550	-205.62	-8.4742	-0.83228	-11.17	-12.177	303.53
653.75550	-155.94	-8.4683	-0.83138	-8.4783	-12.166	300.15
654.25550	-119.44	-8.4623	-0.83047	-6.5023	-12.156	296.68
654.75550	-99.476	-8.4592	-0.82998	-5.4171	-12.148	293.2
655.25550	-86.27	-8.4588	-0.82992	-4.6951	-12.141	289.93
655.75550	-77.913	-8.4595	-0.83004	-4.2436	-12.134	286.64
656.25550	-71.807	-8.4611	-0.83027	-3.9077	-12.122	283.47
656.75550	-67.201	-8.462	-0.83042	-3.6586	-12.113	280.21
657.25550	-65.046	-8.4625	-0.83049	-3.5406	-12.102	277.22
657.75550	-63.734	-8.4627	-0.83052	-3.47	-12.092	274.2
658.25550	-62.482	-8.4626	-0.8305	-3.4004	-12.082	271.32
658.75550	-61.476	-8.4624	-0.83048	-3.346	-12.072	268.37
659.25550	-60.759	-8.4625	-0.8305	-3.3076	-12.063	265.65
659.75550	-60.061	-8.4624	-0.83048	-3.2688	-12.053	262.85
660.25550	-59.476	-8.4623	-0.83047	-3.2365	-12.042	260.02
660.75550	-58.941	-8.4624	-0.83049	-3.2076	-12.031	257.41
661.25550	-58.406	-8.4623	-0.83047	-3.177	-12.022	254.73
661.75550	-58.065	-8.4622	-0.83046	-3.1609	-12.012	252.03
662.25550	-57.687	-8.4622	-0.83045	-3.14	-12.002	249.44
662.75550	-57.345	-8.4621	-0.83043	-3.1218	-11.992	246.88
663.25550	-57.074	-8.462	-0.83041	-3.1066	-11.982	244.33
663.75550	-56.791	-8.4619	-0.83041	-3.0907	-11.972	241.82
664.25550	-56.557	-8.4618	-0.83039	-3.0778	-11.962	239.36
664.75550	-56.296	-8.4617	-0.83038	-3.0658	-11.952	237.01
665.25550	-55.991	-8.4615	-0.83035	-3.0456	-11.944	234.6
665.75550	-55.708	-8.4614	-0.83033	-3.0324	-11.936	232.22
666.25550	-55.495	-8.4613	-0.83031	-3.0225	-11.925	230.03
666.75550	-55.3	-8.4611	-0.83029	-3.0091	-11.916	227.6
667.25550	-55.104	-8.461	-0.83028	-2.9991	-11.907	225.3
667.75550	-54.887	-8.4609	-0.83025	-2.9881	-11.898	223.13
668.25550	-54.645	-8.4608	-0.83023	-2.9753	-11.888	220.95
668.75550	-54.642	-8.4608	-0.83023	-2.9743	-11.879	218.85
669.25550	-54.382	-8.4606	-0.8302	-2.9619	-11.869	216.64
669.75550	-54.164	-8.4605	-0.8302	-2.9492	-11.858	214.4
670.25550	-54.039	-8.4603	-0.83017	-2.9429	-11.848	212.27
670.75550	-53.802	-8.4603	-0.83016	-2.9285	-11.838	210.38
671.25550	-53.768	-8.4602	-0.83015	-2.9255	-11.828	208.47
671.75550	-53.51	-8.46	-0.83012	-2.913	-11.818	206.47
672.25550	-53.322	-8.46	-0.8301	-2.9031	-11.806	204.41
672.75550	-53.267	-8.4598	-0.83008	-2.9022	-11.797	202.47
673.25550	-53.087	-8.4596	-0.83005	-2.8909	-11.787	200.46
673.75550	-53.006	-8.4594	-0.83002	-2.8838	-11.778	198.59
674.25550	-52.845	-8.4593	-0.83	-2.8794	-11.768	196.73
674.75550	-52.612	-8.4591	-0.82997	-2.8657	-11.759	194.97
675.25550	-52.583	-8.4591	-0.82997	-2.8597	-11.75	193.17
675.75550	-52.511	-8.4589	-0.82995	-2.8598	-11.742	191.38
676.25550	-52.28	-8.4588	-0.82994	-2.8481	-11.731	189.53
676.75550	-52.236	-8.4588	-0.82993	-2.8453	-11.72	187.77
677.25550	-52.075	-8.4588	-0.82992	-2.8369	-11.712	185.94
677.75550	-51.899	-8.4584	-0.82986	-2.8262	-11.702	184.31
678.25550	-51.8	-8.4582	-0.82984	-2.8222	-11.692	182.65
678.75550	-51.653	-8.4582	-0.82984	-2.8152	-11.682	180.96
679.25550	-51.557	-8.4582	-0.82984	-2.8067	-11.673	179.24
679.75550	-51.549	-8.458	-0.82981	-2.8071	-11.664	177.66
680.25550	-51.29	-8.458	-0.8298	-2.7925	-11.654	176.06
680.75550	-51.277	-8.4578	-0.82977	-2.79	-11.644	174.39
681.25550	-51.097	-8.4576	-0.82974	-2.7812	-11.635	172.79
681.75550	-50.869	-8.4577	-0.82975	-2.7696	-11.624	171.18
682.25550	-50.957	-8.4577	-0.82976	-2.775	-11.614	169.64
682.75550	-50.764	-8.4574	-0.8297	-2.7648	-11.605	168.24
683.25550	-50.575	-8.4573	-0.8297	-2.7539	-11.596	166.63
683.75550	-50.536	-8.4571	-0.82966	-2.7512	-11.585	165.03
684.25550	-50.513	-8.4569	-0.82964	-2.7517	-11.575	163.58
684.75550	-50.318	-8.4567	-0.82961	-2.7404	-11.564	162.11
685.25550	-50.296	-8.4565	-0.82959	-2.739	-11.554	160.62
685.75550	-50.182	-8.4565	-0.82958	-2.7342	-11.545	159.26
686.25550	-50.063	-8.4564	-0.82957	-2.7274	-11.536	157.82
686.75550	-50.024	-8.4562	-0.82953	-2.7258	-11.528	156.46
687.25550	-49.847	-8.456	-0.8295	-2.7152	-11.516	155.04
687.75550	-49.813	-8.456	-0.8295	-2.7117	-11.508	153.7
688.25550	-49.7	-8.4559	-0.82949	-2.7081	-11.498	152.37
688.75550	-49.582	-8.4558	-0.82947	-2.6994	-11.487	150.99
689.25550	-49.579	-8.4555	-0.82943	-2.7004	-11.478	149.69
689.75550	-49.427	-8.4554	-0.8294	-2.6935	-11.468	148.37
690.25550	-49.323	-8.4553	-0.8294	-2.6871	-11.459	147.03
690.75550	-49.302	-8.4552	-0.82938	-2.6853	-11.45	145.79
691.25550	-49.139	-8.455	-0.82936	-2.677	-11.441	144.55
691.75550	-49.153	-8.4549	-0.82933	-2.6781	-11.431	143.35
692.25550	-49.019	-8.4548	-0.82933	-2.6732	-11.421	142.1
692.75550	-48.905	-8.4545	-0.82927	-2.6649	-11.412	140.76
693.25550	-48.781	-8.4544	-0.82927	-2.6596	-11.403	139.6
693.75550	-48.722	-8.4542	-0.82923	-2.6547	-11.393	138.39
694.25550	-48.61	-8.4541	-0.82921	-2.6479	-11.384	137.25
694.75550	-48.561	-8.454	-0.82919	-2.6468	-11.375	136.03
695.25550	-48.427	-8.4538	-0.82917	-2.6391	-11.364	135.08
695.75550	-48.343	-8.4537	-0.82914	-2.635	-11.355	133.85
696.25550	-48.245	-8.4535	-0.82912	-2.6298	-11.346	132.57
696.75550	-48.17	-8.4533	-0.82909	-2.6249	-11.335	131.42
697.25550	-48.251	-8.4532	-0.82908	-2.6284	-11.326	130.48
697.75550	-48.167	-8.4531	-0.82906	-2.6253	-11.317	129.38
698.25550	-48.089	-8.4529	-0.82902	-2.6214	-11.307	128.18
698.75550	-47.98	-8.4526	-0.82897	-2.6145	-11.297	126.92
699.25550	-47.844	-8.4523	-0.82894	-2.6078	-11.288	125.69
699.75550	-47.708	-8.4523	-0.82894	-2.5988	-11.28	124.54
700.25550	-47.597	-8.452	-0.82888	-2.596	-11.27	123.44
700.75550	-47.405	-8.4517	-0.82884	-2.5859	-11.257	122.44
701.25550	-47.331	-8.4513	-0.82878	-2.5775	-11.247	121.28
701.75550	-47.212	-8.4512	-0.82877	-2.5751	-11.237	120.29
702.25550	-47.128	-8.4511	-0.82875	-2.5714	-11.228	119.29
702.75550	-46.879	-8.4511	-0.82875	-2.5555	-11.218	118.27
703.25550	-46.829	-8.4508	-0.82871	-2.5531	-11.208	117.3
703.75550	-46.66	-8.4507	-0.82869	-2.5433	-11.199	116.31
704.25550	-46.644	-8.4506	-0.82868	-2.5429	-11.188	115.36
704.75550	-46.4	-8.4506	-0.82868	-2.5314	-11.178	114.47
705.25550	-46.336	-8.4502	-0.82861	-2.5234	-11.167	113.54
705.75550	-46.291	-8.4501	-0.8286	-2.5219	-11.159	112.7
706.25550	-46.007	-8.45	-0.82858	-2.51	-11.15	111.81
706.75550	-45.843	-8.4499	-0.82856	-2.5001	-11.138	110.93
707.25550	-45.786	-8.4497	-0.82853	-2.4974	-11.13	110.11
707.75550	-45.511	-8.4497	-0.82853	-2.4832	-11.12	109.19
708.25550	-45.489	-8.4495	-0.82851	-2.4797	-11.111	108.37
708.75550	-45.359	-8.4494	-0.8285	-2.4749	-11.101	107.53
709.25550	-45.217	-8.4493	-0.82848	-2.4666	-11.091	106.68
709.75550	-45.037	-8.4492	-0.82846	-2.4559	-11.081	105.95
710.25550	-44.999	-8.4491	-0.82844	-2.4542	-11.072	105.1
710.75550	-44.754	-8.4491	-0.82844	-2.4403	-11.061	104.46
711.25550	-44.73	-8.4489	-0.82842	-2.4389	-11.053	103.63
711.75550	-44.581	-8.4487	-0.82839	-2.4322	-11.043	102.84
712.25550	-44.407	-8.4486	-0.82837	-2.4214	-11.034	102.15
712.75550	-44.278	-8.4486	-0.82837	-2.4174	-11.025	101.43
713.25550	-44.214	-8.4485	-0.82835	-2.4106	-11.015	100.67
713.75550	-44.021	-8.4485	-0.82837	-2.402	-11.006	99.912
714.25550	-43.843	-8.4483	-0.82833	-2.3932	-10.996	99.184
714.75550	-43.727	-8.4483	-0.82832	-2.3829	-10.987	98.519
715.25550	-43.581	-8.4482	-0.82831	-2.3786	-10.977	97.86
715.75550	-43.392	-8.448	-0.82828	-2.3678	-10.968	97.227
716.25550	-43.306	-8.4479	-0.82827	-2.3633	-10.959	96.575
716.75550	-43.188	-8.4478	-0.82825	-2.3557	-10.949	95.934
717.25550	-43.003	-8.4476	-0.82822	-2.3468	-10.941	95.269
717.75550	-42.937	-8.4474	-0.82819	-2.3414	-10.931	94.659
718.25550	-42.809	-8.4473	-0.82817	-2.334	-10.922	94.044
718.75550	-42.521	-8.4469	-0.82811	-2.3192	-10.912	93.437
719.25550	-42.415	-8.4468	-0.82809	-2.313	-10.903	92.772
719.75550	-42.333	-8.4466	-0.82807	-2.3087	-10.892	92.191
720.25550	-42.093	-8.4465	-0.82805	-2.2966	-10.881	91.572
720.75550	-42.135	-8.4464	-0.82804	-2.299	-10.87	91.05
721.25550	-41.897	-8.4463	-0.82803	-2.2871	-10.86	90.5
721.75550	-41.69	-8.4464	-0.82803	-2.2732	-10.852	89.947
722.25550	-41.785	-8.4463	-0.82801	-2.2791	-10.845	89.367
722.75550	-41.539	-8.4462	-0.82801	-2.2664	-10.835	88.775
723.25550	-41.319	-8.446	-0.82797	-2.2539	-10.825	88.201
723.75550	-41.198	-8.4459	-0.82796	-2.2493	-10.813	87.522
724.25550	-41.046	-8.446	-0.82797	-2.2395	-10.804	86.995
724.75550	-40.975	-8.4458	-0.82794	-2.2341	-10.793	86.539
725.25550	-40.755	-8.4457	-0.82794	-2.2246	-10.784	85.933
725.75550	-40.581	-8.4457	-0.82793	-2.215	-10.775	85.357
726.25550	-40.514	-8.4456	-0.82791	-2.2102	-10.765	84.805
726.75550	-40.28	-8.4454	-0.82787	-2.1987	-10.757	84.313
727.25550	-40.383	-8.4454	-0.82788	-2.2017	-10.747	83.92
727.75550	-40.454	-8.4454	-0.82787	-2.2066	-10.737	83.364
728.25550	-40.51	-8.4453	-0.82787	-2.2098	-10.729	82.835
728.75550	-40.357	-8.4455	-0.82789	-2.2023	-10.718	82.377
729.25550	-40.285	-8.4455	-0.8279	-2.1997	-10.707	81.945
729.75550	-40.182	-8.4456	-0.8279	-2.1933	-10.696	81.452
730.25550	-40.134	-8.4456	-0.82791	-2.192	-10.684	81.017
730.75550	-40.093	-8.4457	-0.82793	-2.1876	-10.675	80.566
731.25550	-40.002	-8.4457	-0.82793	-2.1827	-10.665	80.106
731.75550	-39.987	-8.4456	-0.82791	-2.1817	-10.656	79.711
732.25550	-39.824	-8.4455	-0.8279	-2.1734	-10.644	79.251
732.75550	-39.694	-8.4456	-0.82791	-2.165	-10.634	78.731
733.25550	-39.538	-8.4457	-0.82792	-2.1592	-10.626	78.328
733.75550	-39.453	-8.4457	-0.82793	-2.1522	-10.615	77.906
734.25550	-39.158	-8.4458	-0.82794	-2.1342	-10.607	77.409
734.75550	-38.72	-8.4458	-0.82794	-2.1131	-10.596	77.075
735.25550	-38.668	-8.4456	-0.82791	-2.1091	-10.587	76.701
735.75550	-38.557	-8.4456	-0.82791	-2.1058	-10.578	76.193
736.25550	-38.475	-8.4456	-0.82791	-2.0989	-10.568	75.899
736.75550	-38.388	-8.4455	-0.8279	-2.0942	-10.558	75.449
737.25550	-38.351	-8.4456	-0.82791	-2.0946	-10.549	75.022
737.75550	-38.182	-8.4455	-0.8279	-2.0841	-10.54	74.653
738.25550	-38.129	-8.4455	-0.82791	-2.0785	-10.53	74.264
738.75550	-37.935	-8.4455	-0.82791	-2.0722	-10.52	73.853
739.25550	-37.785	-8.4455	-0.82789	-2.0621	-10.511	73.393
739.75550	-37.683	-8.4455	-0.82789	-2.0561	-10.502	72.978
740.25550	-37.645	-8.4454	-0.82789	-2.0549	-10.492	72.613
740.75550	-37.488	-8.4455	-0.8279	-2.045	-10.483	72.243
741.25550	-37.376	-8.4455	-0.8279	-2.0383	-10.474	71.883
741.75550	-37.17	-8.4455	-0.8279	-2.0282	-10.465	71.505
742.25550	-37.074	-8.4454	-0.82789	-2.0227	-10.454	71.168
742.75550	-36.935	-8.4455	-0.8279	-2.0147	-10.446	70.777
743.25550	-36.737	-8.4455	-0.8279	-2.0057	-10.435	70.458
743.75550	-36.77	-8.4454	-0.82788	-2.0065	-10.425	70.1
744.25550	-36.645	-8.4453	-0.82787	-1.9999	-10.417	69.79
744.75550	-36.495	-8.4453	-0.82787	-1.9914	-10.407	69.434
745.25550	-36.383	-8.4453	-0.82787	-1.9861	-10.397	69.122
745.75550	-36.071	-8.4453	-0.82787	-1.9678	-10.389	68.805
746.25550	-35.946	-8.4453	-0.82788	-1.9619	-10.38	68.442
746.75550	-36.017	-8.4453	-0.82786	-1.9665	-10.369	68.113
747.25550	-35.712	-8.4452	-0.82784	-1.948	-10.36	67.852
747.75550	-35.629	-8.4452	-0.82785	-1.9445	-10.351	67.54
748.25550	-35.481	-8.4451	-0.82784	-1.9353	-10.341	67.176
748.75550	-35.454	-8.4452	-0.82784	-1.933	-10.33	66.707
749.25550	-35.315	-8.4451	-0.82783	-1.9275	-10.318	66.469
749.75550	-35.102	-8.445	-0.82783	-1.9149	-10.306	66.24
750.25550	-35.001	-8.445	-0.82782	-1.9099	-10.299	65.904
750.75550	-34.793	-8.445	-0.82782	-1.8989	-10.291	65.613
751.25550	-34.679	-8.4451	-0.82783	-1.8907	-10.282	65.287
751.75550	-34.655	-8.445	-0.82782	-1.8924	-10.27	65.011
752.25550	-34.384	-8.445	-0.82782	-1.8788	-10.259	64.744
752.75550	-34.343	-8.4451	-0.82783	-1.8735	-10.25	64.49
753.25550	-34.248	-8.4449	-0.82781	-1.8708	-10.239	64.237
753.75550	-34.039	-8.4448	-0.82778	-1.8578	-10.229	63.944
754.25550	-33.892	-8.4449	-0.8278	-1.8493	-10.219	63.699
754.75550	-33.786	-8.4449	-0.8278	-1.8443	-10.21	63.476
755.25550	-33.604	-8.4449	-0.82781	-1.8327	-10.2	63.184
755.75550	-33.492	-8.4447	-0.82777	-1.8283	-10.192	62.843
756.25550	-33.391	-8.4448	-0.82779	-1.8215	-10.18	62.647
756.75550	-33.264	-8.4449	-0.82781	-1.8155	-10.17	62.359
757.25550	-33.083	-8.4447	-0.82778	-1.8022	-10.159	62.078
757.75550	-32.973	-8.4448	-0.82779	-1.799	-10.151	61.833
758.25550	-32.846	-8.4446	-0.82777	-1.7941	-10.14	61.581
758.75550	-32.694	-8.4447	-0.82777	-1.7838	-10.131	61.379
759.25550	-32.578	-8.4446	-0.82776	-1.7767	-10.122	60.938
759.75550	-32.492	-8.4446	-0.82776	-1.7727	-10.11	60.793
760.25550	-32.306	-8.4446	-0.82775	-1.7629	-10.101	60.502
760.75550	-32.258	-8.4446	-0.82776	-1.7598	-10.092	60.34
761.25550	-32.147	-8.4445	-0.82775	-1.7545	-10.082	60.114
761.75550	-31.98	-8.4444	-0.82773	-1.7462	-10.072	59.732
762.25550	-31.808	-8.4444	-0.82773	-1.7344	-10.062	59.559
762.75550	-31.74	-8.4444	-0.82773	-1.7345	-10.053	59.332
763.25550	-31.639	-8.4444	-0.82773	-1.7274	-10.043	59.074
763.75550	-31.512	-8.4443	-0.82771	-1.7194	-10.034	58.898
764.25550	-31.3	-8.4444	-0.82773	-1.7105	-10.023	58.637
764.75550	-31.296	-8.4442	-0.8277	-1.7074	-10.015	58.403
765.25550	-31.118	-8.4442	-0.82771	-1.6988	-10.005	58.185
765.75550	-30.909	-8.4443	-0.82771	-1.6864	-9.9965	57.921
766.25550	-30.906	-8.4442	-0.82771	-1.6861	-9.9869	57.74
766.75550	-30.778	-8.4441	-0.82768	-1.6811	-9.9766	57.559
767.25550	-30.58	-8.4442	-0.8277	-1.6697	-9.9655	57.37
767.75550	-30.507	-8.4441	-0.82769	-1.664	-9.9551	57.127
768.25550	-30.391	-8.4441	-0.82768	-1.6603	-9.948	56.94
768.75550	-30.17	-8.444	-0.82766	-1.647	-9.9378	56.748
769.25550	-30.148	-8.444	-0.82767	-1.6476	-9.9276	56.541
769.75550	-29.978	-8.444	-0.82768	-1.6378	-9.918	56.357
770.25550	-29.917	-8.4439	-0.82766	-1.6317	-9.9093	56.149
770.75550	-29.809	-8.4439	-0.82766	-1.6258	-9.9003	55.936
771.25550	-29.608	-8.444	-0.82767	-1.6173	-9.8898	55.754
771.75550	-29.523	-8.444	-0.82767	-1.6108	-9.8791	55.522
772.25550	-29.476	-8.4441	-0.82768	-1.6089	-9.8711	55.34
772.75550	-29.258	-8.4439	-0.82765	-1.5974	-9.8618	55.176
773.25550	-29.162	-8.4439	-0.82765	-1.5919	-9.8505	54.926
773.75550	-29.227	-8.4439	-0.82765	-1.5948	-9.8414	54.642
774.25550	-29.02	-8.4438	-0.82763	-1.5826	-9.8309	54.493
774.75550	-28.881	-8.4437	-0.82763	-1.5752	-9.8207	54.276
775.25550	-28.71	-8.4438	-0.82764	-1.5693	-9.8111	54.105
775.75550	-28.649	-8.4438	-0.82763	-1.5637	-9.802	53.894
776.25550	-28.554	-8.4437	-0.82762	-1.5589	-9.7928	53.728
776.75550	-28.429	-8.4437	-0.82762	-1.553	-9.7822	53.548
777.25550	-28.379	-8.4438	-0.82763	-1.5487	-9.7731	53.425
777.75550	-28.206	-8.4437	-0.82762	-1.5421	-9.763	53.21
778.25550	-28.051	-8.4437	-0.82762	-1.5316	-9.7528	53.051
778.75550	-28.074	-8.4435	-0.8276	-1.5325	-9.7442	52.873
779.25550	-27.884	-8.4436	-0.82761	-1.5225	-9.7336	52.67
779.75550	-27.738	-8.4435	-0.82759	-1.5155	-9.7245	52.511
780.25550	-27.763	-8.4436	-0.8276	-1.5131	-9.7143	52.43
780.75550	-27.597	-8.4436	-0.8276	-1.506	-9.7051	52.139
781.25550	-27.528	-8.4435	-0.82759	-1.5025	-9.6943	52.074
781.75550	-27.408	-8.4435	-0.8276	-1.4987	-9.6861	51.877
782.25550	-27.307	-8.4436	-0.8276	-1.4903	-9.6757	51.568
782.75550	-27.209	-8.4434	-0.82758	-1.484	-9.6665	51.602
783.25550	-27.052	-8.4434	-0.82758	-1.4781	-9.656	51.399
783.75550	-26.967	-8.4434	-0.82758	-1.4731	-9.6461	51.211
784.25550	-26.901	-8.4434	-0.82758	-1.4684	-9.6384	51.176
784.75550	-26.743	-8.4434	-0.82757	-1.4605	-9.6276	50.957
785.25550	-26.707	-8.4434	-0.82758	-1.4568	-9.6172	50.768
