Time(sec)	Force(kgf)	LGauge(mm)	Strain	Stress(MPa)	Stroke(mm)	TC1(C)
0.00000	-130.91	-0.066869	-0.0045474	-16.272	0.11682	53.614
1.00000	-130.83	-0.0026789	-0.00018087	-16.333	0.11561	53.495
2.00000	-130.82	-8.8742e-05	-5.1743e-06	-16.339	0.11422	53.366
3.00000	-131.72	-0.0003833	-2.3828e-05	-16.447	0.11402	53.265
4.00000	-134.19	-0.0014184	-9.1254e-05	-16.754	0.11392	53.147
5.00000	-133.93	-0.0016376	-0.00010763	-16.722	0.11356	53.041
6.00000	-133.82	-0.001813	-0.0001206	-16.709	0.11338	52.934
7.00000	-133.69	-0.0020281	-0.000136	-16.691	0.11416	52.827
8.00000	-133.57	-0.0021855	-0.00014642	-16.672	0.11401	52.717
9.00000	-133.35	-0.0024151	-0.00016157	-16.647	0.11572	52.635
10.00000	-133.25	-0.0025796	-0.00017279	-16.632	0.1164	52.527
11.00000	-133.35	-0.0026614	-0.00017729	-16.65	0.1187	52.446
12.00000	-137.16	-0.0029228	-0.00019656	-17.129	0.11797	52.895
13.00000	-144.86	-0.0029377	-0.00019806	-18.086	0.11694	56.633
14.00000	-152.94	-0.0029856	-0.0002026	-19.095	0.11724	64.177
15.00000	-157.53	-0.0030893	-0.0002093	-19.666	0.11814	72.562
15.51030	-159.02	-0.0032207	-0.00021711	-19.854	0.11885	76.341
16.51030	-161.36	-0.0033373	-0.00022723	-20.139	0.11929	81.714
17.51030	-164.83	-0.0032975	-0.00021952	-20.577	0.12007	85.598
18.51030	-169.37	-0.002956	-0.00019975	-21.148	0.11917	89.504
19.51030	-173.83	-0.0023372	-0.0001586	-21.702	0.12036	94.54
19.62720	-174.23	-0.0022472	-0.00015212	-21.751	0.12036	95.196
20.62720	-177.51	-0.0015055	-9.8134e-05	-22.161	0.12105	101.08
21.62720	-179.88	-0.00086822	-5.5885e-05	-22.46	0.12047	106.81
22.62720	-181.7	-0.00028793	-1.7735e-05	-22.684	0.1209	111.83
23.62720	-183.58	0.00058352	4.0428e-05	-22.926	0.12037	116.22
24.62720	-184.98	0.0020865	0.00014012	-23.104	0.12031	120.74
25.62720	-186.13	0.003635	0.00024396	-23.245	0.12129	125.66
26.62720	-187.05	0.0056048	0.00037569	-23.362	0.12092	130.94
27.62720	-187.68	0.0075182	0.00050321	-23.449	0.1204	136.33
28.62720	-188.51	0.0093653	0.00062631	-23.556	0.11997	141.34
29.62720	-189.13	0.011485	0.00076848	-23.635	0.11952	146.11
30.62720	-189.75	0.01377	0.00091912	-23.714	0.11867	151.04
31.62720	-190.32	0.016058	0.0010705	-23.787	0.11716	156.12
32.62720	-190.83	0.018494	0.0012327	-23.86	0.11639	161.25
33.62720	-191.41	0.020836	0.0013882	-23.938	0.11588	166.37
34.62720	-192.15	0.023029	0.0015311	-24.033	0.11574	171.35
35.62720	-192.72	0.025385	0.0016887	-24.102	0.11428	176.25
36.62720	-192.92	0.028059	0.0018679	-24.13	0.11463	181.09
37.62720	-193.31	0.030773	0.0020492	-24.193	0.11284	186.12
38.62720	-193.74	0.03346	0.0022264	-24.249	0.11299	191.18
39.62720	-193.98	0.036025	0.0023956	-24.282	0.11218	196.14
40.62720	-194.17	0.038504	0.0025593	-24.308	0.11181	201.06
41.62720	-194.31	0.041545	0.0027633	-24.337	0.11162	206
42.62720	-194.43	0.044638	0.0029677	-24.352	0.11233	211.06
43.62720	-194.54	0.04769	0.0031731	-24.368	0.11177	216.26
44.62720	-194.56	0.050625	0.0033669	-24.375	0.11112	221.31
45.62720	-194.74	0.053636	0.0035662	-24.407	0.11093	226.23
46.62720	-194.9	0.05657	0.0037657	-24.433	0.1107	231.1
47.62720	-195.1	0.059623	0.0039701	-24.453	0.11038	236.07
48.62720	-195.08	0.062819	0.0041808	-24.458	0.10982	241.16
49.62720	-195.08	0.0661	0.0043979	-24.47	0.11041	246.11
50.62720	-195.15	0.069172	0.0046015	-24.484	0.11072	251.16
51.62720	-195.44	0.072092	0.0047982	-24.523	0.11026	256.27
52.62720	-195.73	0.075134	0.0049988	-24.559	0.11035	261.34
53.62720	-195.56	0.07823	0.0052042	-24.543	0.11064	266.3
54.62720	-195.57	0.08129	0.0054079	-24.552	0.1102	271.24
55.62720	-195.84	0.084351	0.0056098	-24.594	0.10873	276.05
56.53120	-195.87	0.087494	0.0058173	-24.594	0.10928	280.45
57.53120	-195.78	0.09095	0.0060461	-24.594	0.10913	285.65
58.53120	-195.88	0.094309	0.0062681	-24.614	0.10928	290.72
58.77860	-195.93	0.095128	0.0063235	-24.618	0.10924	292.03
59.77860	-196.11	0.09837	0.0065361	-24.653	0.10937	297.14
60.77860	-196.4	0.10161	0.0067514	-24.686	0.1088	302.06
61.77860	-196.35	0.10468	0.0069543	-24.686	0.10931	307.05
62.77860	-196.23	0.10805	0.0071772	-24.676	0.1087	312.05
63.77860	-196.45	0.11147	0.0074028	-24.714	0.10897	317
64.77860	-196.63	0.11486	0.0076273	-24.741	0.10919	321.98
65.77860	-196.79	0.11815	0.007843	-24.766	0.10888	327
66.77860	-196.86	0.12157	0.0080694	-24.777	0.10868	331.92
67.77860	-196.79	0.12517	0.0083076	-24.778	0.10863	337.06
68.77860	-197.03	0.12874	0.0085474	-24.82	0.10914	342
69.77860	-197.19	0.13213	0.0087681	-24.838	0.10927	347.15
70.77860	-197.28	0.13548	0.0089892	-24.855	0.10878	352.15
71.77860	-197.26	0.1384	0.009185	-24.86	0.10893	357.09
72.77860	-197.39	0.14167	0.0094015	-24.882	0.10921	361.97
73.77860	-197.45	0.14528	0.0096386	-24.899	0.10877	366.73
74.77860	-197.66	0.14897	0.0098822	-24.929	0.10848	371.7
75.77860	-197.65	0.15268	0.010129	-24.933	0.1088	376.72
76.77860	-197.65	0.15659	0.010386	-24.936	0.10825	381.76
77.77860	-197.79	0.16024	0.01063	-24.964	0.10851	386.95
78.77860	-197.97	0.16391	0.010868	-24.994	0.10848	392.01
79.77860	-198.16	0.16739	0.011099	-25.017	0.10778	397.07
80.77860	-198.19	0.17072	0.011319	-25.027	0.10794	402.11
81.77860	-198.33	0.17418	0.011546	-25.049	0.10894	407.11
82.77860	-198.43	0.17763	0.011775	-25.073	0.10779	412.11
83.77860	-198.68	0.18103	0.011997	-25.104	0.10853	417.03
84.77860	-198.76	0.18459	0.012232	-25.12	0.10825	422.01
85.77860	-198.67	0.18821	0.012469	-25.116	0.10794	426.98
86.77860	-198.71	0.19195	0.012715	-25.13	0.10813	432.03
87.77860	-198.91	0.19547	0.012947	-25.161	0.10795	437.12
88.77860	-199.08	0.19882	0.013168	-25.189	0.10829	442.07
89.77860	-199.34	0.20209	0.013381	-25.219	0.1094	447.03
90.77860	-199.19	0.20532	0.013594	-25.214	0.10839	452
91.77860	-199.22	0.20896	0.013833	-25.218	0.10789	456.83
92.77860	-199.41	0.21271	0.014079	-25.253	0.10874	461.8
93.77860	-199.47	0.21635	0.014319	-25.269	0.10988	466.84
94.77860	-199.64	0.22006	0.014564	-25.293	0.10816	471.96
95.77860	-199.72	0.22371	0.014802	-25.312	0.10845	477.09
96.77860	-199.74	0.22724	0.015033	-25.317	0.10903	482.14
97.49930	-199.81	0.22973	0.0152	-25.333	0.10935	485.76
98.49930	-199.96	0.23312	0.015424	-25.355	0.10901	490.7
98.52380	-199.99	0.23323	0.015432	-25.358	0.10911	490.83
99.52380	-200.15	0.23639	0.015638	-25.379	0.11057	495.77
100.52380	-200.17	0.23966	0.015851	-25.391	0.10882	500.69
101.52380	-200.24	0.24327	0.016089	-25.413	0.11023	505.58
102.52380	-200.4	0.24692	0.016329	-25.437	0.11047	510.57
103.52380	-200.38	0.25056	0.01657	-25.431	0.10964	515.58
104.52380	-200.56	0.25433	0.016816	-25.466	0.1109	520.61
105.52380	-200.49	0.25792	0.01705	-25.464	0.10911	525.68
106.52380	-200.65	0.26152	0.017286	-25.495	0.11045	530.75
107.52380	-200.82	0.26506	0.017518	-25.517	0.11075	535.79
108.52380	-200.95	0.26858	0.017749	-25.539	0.10963	540.75
109.52380	-200.97	0.27168	0.017952	-25.548	0.11043	545.86
110.52380	-200.97	0.27492	0.018165	-25.552	0.11118	550.83
111.52380	-201.05	0.27812	0.018372	-25.567	0.11103	555.59
112.52380	-201.3	0.28149	0.018592	-25.606	0.10979	560.62
113.52380	-201.36	0.28505	0.018824	-25.621	0.11134	565.54
114.52380	-201.38	0.28868	0.019061	-25.626	0.11042	570.47
115.52380	-201.45	0.29231	0.019297	-25.646	0.11135	575.47
116.52380	-201.48	0.296	0.019539	-25.659	0.11101	580.57
117.52380	-201.67	0.29939	0.019762	-25.686	0.11161	585.75
118.52380	-201.78	0.30262	0.019974	-25.705	0.11137	590.86
119.52380	-201.9	0.30576	0.020177	-25.72	0.1121	595.79
120.52380	-201.83	0.30895	0.020387	-25.722	0.11223	600.83
121.52380	-202.01	0.31202	0.020586	-25.757	0.11157	605.86
122.52380	-202.32	0.31527	0.0208	-25.794	0.11268	610.65
123.52380	-202.46	0.31834	0.021002	-25.813	0.11276	615.66
124.52380	-202.45	0.32119	0.021191	-25.814	0.11217	620.47
125.52380	-202.46	0.32434	0.021394	-25.827	0.11235	625.28
126.52380	-202.66	0.32777	0.021618	-25.857	0.11209	630.18
127.52380	-202.77	0.33133	0.021852	-25.875	0.11374	635.25
128.52380	-202.69	0.33478	0.022076	-25.87	0.11348	640.39
129.52380	-202.7	0.33791	0.022279	-25.873	0.11369	645.61
130.52380	-202.96	0.3408	0.022467	-25.92	0.1127	650.73
131.52380	-203.11	0.34357	0.022648	-25.949	0.11337	655.85
132.52380	-203.29	0.34653	0.022841	-25.968	0.11415	660.8
133.52380	-203.23	0.34946	0.023031	-25.965	0.1136	665.53
134.52380	-203.24	0.35261	0.023236	-25.981	0.11389	670.2
135.52380	-203.29	0.3563	0.023476	-25.99	0.11451	675.23
136.52380	-203.44	0.35998	0.023714	-26.011	0.11439	680.26
137.52380	-203.51	0.3634	0.023935	-26.023	0.1141	685.33
138.43160	-203.4	0.36638	0.02413	-26.02	0.11458	690.23
139.43160	-203.47	0.36931	0.024321	-26.034	0.11427	695.33
140.43160	-203.65	0.3719	0.02449	-26.06	0.11366	700.39
141.43160	-203.84	0.37449	0.024657	-26.084	0.11409	705.42
142.43160	-203.77	0.37739	0.024844	-26.084	0.11431	710.37
143.43160	-203.72	0.3803	0.025034	-26.087	0.11457	715.29
143.47180	-203.71	0.38043	0.025043	-26.085	0.11446	715.48
144.47180	-203.88	0.38348	0.025243	-26.112	0.11401	720.45
145.47180	-204.09	0.38621	0.025419	-26.145	0.11321	725.18
146.47180	-204.15	0.38861	0.025575	-26.149	0.11337	730.22
147.47180	-203.13	0.38949	0.025633	-26.023	0.11358	735.01
148.47180	-193.58	0.3893	0.025622	-24.8	0.11399	740.05
149.47180	-179.01	0.3883	0.025558	-22.928	0.11255	744.76
150.47180	-168.05	0.38656	0.025447	-21.525	0.11184	748.29
151.47180	-163.13	0.38549	0.025376	-20.892	0.11654	749.38
152.47180	-165.34	0.38587	0.025401	-21.181	0.11752	749.06
153.47180	-182.72	0.38766	0.025518	-23.409	0.11723	749.37
154.47180	-203.42	0.39554	0.02603	-26.072	0.11862	752.83
155.47180	-203.48	0.41284	0.027151	-26.104	0.11806	775.33
156.47180	-179.56	0.4112	0.027046	-23.038	0.11721	811.29
157.47180	-161.62	0.40352	0.026546	-20.726	0.11722	823.94
158.47180	-158.13	0.39402	0.02593	-20.265	0.11654	825.91
159.47180	-156.35	0.38503	0.025346	-20.022	0.11593	822.89
160.47180	-124.98	0.38033	0.025041	-16	0.11666	817.13
161.47180	-81.786	0.3818	0.025137	-10.478	0.11697	810.2
162.47180	-73.431	0.38083	0.025073	-9.4009	0.1178	803.89
163.47180	-90.065	0.38392	0.025273	-11.532	0.11853	803.56
164.47180	-96.756	0.39252	0.02583	-12.396	0.11727	809.12
165.47180	-97.989	0.40269	0.026491	-12.566	0.11627	817.84
166.47180	-98.375	0.41047	0.026995	-12.623	0.11752	827.34
167.47180	-98.512	0.41569	0.027334	-12.64	0.1182	835.5
168.47180	-98.485	0.41925	0.027565	-12.646	0.11797	841.88
169.47180	-98.727	0.42211	0.02775	-12.68	0.11731	846.83
170.47180	-98.907	0.42519	0.02795	-12.703	0.11736	851.1
171.47180	-99.037	0.42891	0.028195	-12.719	0.11639	855.58
172.47180	-99.032	0.43314	0.028466	-12.726	0.11749	860.15
173.47180	-99.023	0.4372	0.028727	-12.725	0.11744	865.01
174.47180	-99.234	0.44091	0.028969	-12.761	0.11763	870.12
175.47180	-99.241	0.445	0.029235	-12.761	0.117	875.05
176.47180	-99.249	0.44937	0.02952	-12.762	0.11693	880.14
177.47180	-99.23	0.45341	0.029778	-12.766	0.11704	885.49
178.47180	-99.375	0.45758	0.030051	-12.788	0.11725	890.64
179.37670	-99.418	0.46113	0.030283	-12.794	0.11727	895.33
180.37670	-99.468	0.46485	0.030522	-12.805	0.11666	900.32
181.37670	-99.445	0.46822	0.030739	-12.808	0.11798	905.18
182.37670	-99.655	0.47157	0.030956	-12.84	0.11738	909.94
182.60740	-99.516	0.47239	0.031009	-12.822	0.11712	911.15
183.60740	-99.613	0.47579	0.031231	-12.831	0.11722	916.13
184.60740	-99.66	0.47967	0.03148	-12.84	0.1168	921.22
185.60740	-99.663	0.48353	0.031727	-12.846	0.11749	926.11
186.60740	-99.659	0.48685	0.03194	-12.849	0.11626	931.31
187.60740	-99.623	0.49041	0.032171	-12.85	0.1176	936.17
188.60740	-99.665	0.49424	0.032419	-12.853	0.11697	941.18
189.60740	-99.723	0.49795	0.032659	-12.862	0.11689	946.18
190.60740	-99.657	0.50167	0.032899	-12.861	0.11608	951.06
191.60740	-99.749	0.50512	0.03312	-12.88	0.11743	956.03
192.60740	-99.867	0.50858	0.033342	-12.895	0.11647	961.02
193.60740	-99.919	0.51183	0.03355	-12.903	0.11771	966
194.60740	-99.873	0.51527	0.033771	-12.899	0.11609	971.07
195.60740	-99.851	0.51858	0.033986	-12.907	0.11524	975.87
196.60740	-100	0.52184	0.034193	-12.929	0.11573	980.91
197.60740	-100.11	0.52533	0.034422	-12.939	0.11613	985.95
198.60740	-100.11	0.52878	0.034643	-12.94	0.11649	991.09
199.60740	-100.13	0.532	0.034849	-12.949	0.11621	996.14
200.60740	-100.16	0.53502	0.035046	-12.958	0.11541	1001.2
201.60740	-100.24	0.5379	0.035235	-12.965	0.1144	1006.2
202.60740	-100.27	0.5405	0.035399	-12.973	0.1143	1011.1
203.60740	-100.34	0.54333	0.035582	-12.983	0.11524	1016.1
204.60740	-100.3	0.5462	0.035768	-12.983	0.11466	1021.1
205.60740	-100.33	0.5488	0.035934	-12.988	0.11515	1026.2
206.60740	-100.39	0.55133	0.036098	-12.996	0.11528	1031.2
207.60740	-100.58	0.55335	0.036226	-13.02	0.11511	1036.3
208.60740	-100.56	0.55529	0.036353	-13.021	0.11543	1041.1
209.60740	-100.74	0.55729	0.036481	-13.049	0.11528	1046.2
210.60740	-100.8	0.55886	0.036582	-13.058	0.11546	1051.2
211.60740	-101.16	0.55993	0.036652	-13.101	0.11517	1056.1
212.60740	-101.6	0.56078	0.036705	-13.156	0.11397	1061.1
213.60740	-102.21	0.56115	0.03673	-13.236	0.11402	1066.1
214.60740	-102.42	0.56128	0.036734	-13.268	0.11351	1071.1
215.60740	-102.12	0.56145	0.036745	-13.23	0.11422	1076
216.60740	-101.6	0.56158	0.036754	-13.16	0.11325	1081.1
217.60740	-100.36	0.5616	0.036755	-12.996	0.11357	1086.1
218.60740	-99.128	0.56149	0.03675	-12.842	0.11261	1091.1
219.60740	-97.328	0.56162	0.036756	-12.609	0.11335	1096.1
220.42040	-96.344	0.5618	0.036767	-12.481	0.11407	1100.1
221.42040	-95.483	0.56165	0.036759	-12.369	0.11337	1105.4
221.74670	-94.845	0.56161	0.036758	-12.285	0.11349	1107.2
222.74670	-92.889	0.56148	0.036747	-12.034	0.11398	1112.2
223.74670	-91.033	0.56153	0.036749	-11.791	0.11246	1117.3
224.74670	-89.19	0.56155	0.036751	-11.555	0.11173	1122.3
225.74670	-87.568	0.5614	0.036745	-11.345	0.11164	1127.1
226.74670	-86.265	0.56114	0.036726	-11.174	0.11198	1132
227.74670	-84.977	0.56116	0.036729	-11.006	0.11178	1137.1
228.74670	-83.494	0.56117	0.036728	-10.815	0.11222	1141.9
229.74670	-82.32	0.56109	0.036724	-10.661	0.11252	1147
230.74670	-81.02	0.56073	0.036703	-10.495	0.11186	1152
231.74670	-80.033	0.56068	0.036699	-10.37	0.11261	1156.9
232.74670	-78.927	0.56067	0.036697	-10.225	0.11394	1161.9
233.74670	-77.999	0.56071	0.036699	-10.101	0.11276	1166.9
234.74670	-76.919	0.56061	0.036694	-9.9653	0.11283	1171.9
235.74670	-76.099	0.56019	0.036667	-9.8557	0.111	1176.8
236.74670	-75.375	0.55995	0.036652	-9.7653	0.11118	1181.8
237.74670	-74.822	0.55994	0.03665	-9.6904	0.11171	1186.7
238.74670	-73.975	0.55995	0.036651	-9.5814	0.11148	1191.7
239.74670	-73.669	0.55995	0.03665	-9.5425	0.111	1196.7
240.74670	-72.258	0.55943	0.036616	-9.3623	0.11067	1201.3
241.74670	-69.506	0.55761	0.036498	-9.0039	0.11168	1202.9
242.74670	-67.078	0.5561	0.036404	-8.6859	0.11137	1202.3
243.74670	-65.714	0.55511	0.036338	-8.5044	0.11304	1201.4
244.74670	-64.367	0.55474	0.036313	-8.3333	0.11149	1200.9
245.74670	-64.143	0.55422	0.036277	-8.3072	0.11136	1200.7
246.74670	-63.36	0.55421	0.036277	-8.2097	0.11264	1200.6
247.74670	-62.742	0.55412	0.036271	-8.1217	0.11007	1200.5
248.74670	-62.488	0.55381	0.036251	-8.0885	0.10933	1200.5
249.74670	-61.515	0.55365	0.03624	-7.9607	0.10941	1200.3
250.74670	-62.147	0.55298	0.036198	-8.0496	0.11008	1200.3
251.74670	-61.222	0.55282	0.036191	-7.9315	0.11009	1200.3
252.74670	-62.099	0.55184	0.036126	-8.0367	0.11056	1200.1
253.74670	-61.004	0.55148	0.036101	-7.8957	0.11011	1199.9
254.74670	-62.006	0.55087	0.036065	-8.0233	0.1108	1199.9
255.74670	-61.627	0.55073	0.036057	-7.9826	0.11101	1200.1
256.74670	-60.964	0.55049	0.036041	-7.8941	0.1115	1200.1
257.74670	-60.309	0.55035	0.036034	-7.805	0.11005	1200
258.74670	-60.252	0.55022	0.036028	-7.7978	0.109	1200.1
259.74670	-59.84	0.55022	0.036028	-7.7452	0.10857	1200.2
260.74670	-59.358	0.5504	0.036041	-7.6863	0.10855	1200.2
261.35510	-60.619	0.54999	0.036014	-7.8432	0.1083	1200.2
262.35510	-61.007	0.54941	0.035972	-7.8997	0.10886	1200.2
262.38040	-60.977	0.54938	0.03597	-7.8952	0.10881	1200.2
263.38040	-60.207	0.54921	0.035959	-7.799	0.10845	1200
264.38040	-59.943	0.54899	0.035946	-7.7598	0.1096	1200
265.38040	-59.56	0.54904	0.035951	-7.7081	0.11002	1199.9
266.38040	-59.203	0.54945	0.035977	-7.6709	0.10956	1199.9
267.38040	-59.121	0.54953	0.035979	-7.6577	0.10982	1199.9
268.38040	-59.017	0.54933	0.035964	-7.6411	0.1096	1199.9
269.38040	-58.937	0.54915	0.035954	-7.6259	0.11088	1200
270.38040	-58.601	0.54935	0.035967	-7.5861	0.1109	1200
271.38040	-60.815	0.54843	0.035906	-7.8772	0.11264	1199.8
272.38040	-60.288	0.5482	0.03589	-7.8067	0.11097	1199.7
273.38040	-60.458	0.54812	0.035888	-7.825	0.11081	1199.9
274.38040	-60.266	0.54843	0.03591	-7.8032	0.10919	1200
275.38040	-60.233	0.54816	0.035888	-7.8022	0.10964	1200.1
276.38040	-60.096	0.54793	0.035872	-7.7841	0.11063	1200.2
277.38040	-60.148	0.54783	0.035872	-7.7836	0.10984	1200.2
278.38040	-59.573	0.54811	0.035887	-7.7122	0.10947	1200.3
279.38040	-59.212	0.54796	0.035876	-7.6678	0.1109	1200.2
280.38040	-59.249	0.54776	0.035864	-7.6703	0.11069	1200.1
281.38040	-58.889	0.54792	0.03588	-7.6166	0.11153	1200.1
282.38040	-59.061	0.54798	0.03588	-7.6434	0.11115	1199.9
283.38040	-60.686	0.54707	0.035822	-7.8556	0.11175	1199.9
284.38040	-60.706	0.54688	0.035811	-7.8611	0.11105	1200
285.38040	-60.517	0.54688	0.035815	-7.8275	0.11067	1200.1
286.38040	-59.982	0.54705	0.035825	-7.7616	0.11051	1200.1
287.38040	-59.783	0.54711	0.035826	-7.7401	0.11067	1200.1
288.38040	-59.574	0.547	0.035817	-7.7119	0.10997	1200.1
289.38040	-59.447	0.5469	0.035811	-7.6941	0.11128	1200.1
290.38040	-59.16	0.54677	0.035803	-7.656	0.11079	1200.1
291.38040	-59.035	0.54671	0.0358	-7.6379	0.11145	1200.1
292.38040	-58.971	0.54671	0.035799	-7.6348	0.11179	1200.1
293.38040	-60.637	0.54614	0.035762	-7.8438	0.11145	1200.2
294.38040	-60.703	0.54567	0.035732	-7.853	0.1123	1200.2
295.38040	-60.276	0.54576	0.035738	-7.7958	0.11358	1200.2
296.38040	-59.973	0.54573	0.035735	-7.7635	0.11159	1200.2
297.38040	-59.712	0.54563	0.035729	-7.7297	0.11192	1200.1
298.38040	-59.582	0.54555	0.035725	-7.7083	0.11094	1200.1
299.38040	-59.234	0.54553	0.035722	-7.6645	0.11079	1200
300.38040	-59.105	0.54545	0.035719	-7.6491	0.11163	1199.9
301.38040	-61.366	0.54422	0.035637	-7.9436	0.11119	1200
302.32190	-61.018	0.54402	0.035624	-7.8966	0.11118	1200
303.32190	-60.556	0.54397	0.035625	-7.8364	0.112	1200
304.32190	-60.545	0.54395	0.035624	-7.8339	0.1128	1200.1
305.32190	-60.537	0.54399	0.035625	-7.834	0.1127	1200.1
306.32190	-60.465	0.54397	0.035623	-7.825	0.11315	1200.1
306.46410	-60.441	0.54395	0.035621	-7.8206	0.1126	1200.2
307.46410	-60.174	0.54393	0.035621	-7.7855	0.11287	1200.3
308.46410	-59.785	0.54384	0.035614	-7.7376	0.1144	1200.3
309.46410	-59.622	0.54397	0.035624	-7.7154	0.1134	1200.3
310.46410	-61.829	0.5428	0.035547	-8.0035	0.11216	1200.3
311.46410	-61.088	0.54273	0.035545	-7.9092	0.11282	1200.4
312.46410	-60.945	0.54246	0.035527	-7.8854	0.11264	1200.2
313.46410	-60.902	0.54206	0.035502	-7.8783	0.11211	1200.2
314.46410	-60.915	0.54157	0.035471	-7.8759	0.11199	1200.2
315.46410	-60.623	0.54122	0.035448	-7.8452	0.11258	1200.2
316.46410	-60.437	0.54111	0.03544	-7.819	0.11106	1200.2
317.46410	-60.185	0.54099	0.035428	-7.7913	0.11317	1200.2
318.46410	-61.929	0.54018	0.035376	-8.013	0.11375	1200.1
319.46410	-62.281	0.53982	0.035353	-8.0607	0.1132	1200.1
320.46410	-61.785	0.5396	0.035342	-7.9931	0.11422	1200.1
321.46410	-61.208	0.53929	0.035323	-7.9196	0.11312	1199.8
322.46410	-61.049	0.53905	0.035305	-7.9041	0.11362	1199.8
323.46410	-61.005	0.53914	0.035307	-7.8892	0.11241	1199.9
324.46410	-60.788	0.53955	0.035335	-7.8605	0.11303	1199.9
325.46410	-60.806	0.53948	0.035333	-7.8662	0.11246	1200
326.46410	-61.403	0.5392	0.035315	-7.9438	0.11292	1200.1
327.46410	-62.332	0.53931	0.035319	-8.0662	0.11316	1200.1
328.46410	-62.642	0.53965	0.035341	-8.1054	0.11324	1200.1
329.46410	-62.273	0.53981	0.035354	-8.0554	0.11269	1200
330.46410	-61.519	0.53949	0.035336	-7.9558	0.11398	1200
331.46410	-61.211	0.53926	0.035318	-7.9203	0.11341	1199.9
332.46410	-62.509	0.53839	0.03526	-8.0885	0.11399	1199.9
333.46410	-61.759	0.53855	0.035273	-7.9847	0.11393	1200
334.46410	-61.666	0.53828	0.035261	-7.973	0.11224	1199.9
335.46410	-62.469	0.53734	0.035201	-8.0794	0.11349	1200
336.46410	-61.771	0.53701	0.035178	-7.9903	0.11345	1199.9
337.46410	-61.186	0.53687	0.035167	-7.9127	0.11262	1200
338.46410	-62.803	0.53616	0.03512	-8.1183	0.11251	1199.9
339.46410	-61.989	0.53617	0.035121	-8.0162	0.11259	1199.9
340.46410	-61.296	0.53617	0.035124	-7.9267	0.11178	1199.9
341.46410	-60.992	0.53594	0.035109	-7.8882	0.11261	1200
342.46410	-62.222	0.53521	0.035061	-8.0471	0.11369	1200
343.27240	-62.53	0.53484	0.035035	-8.0813	0.11227	1200.1
344.27240	-61.735	0.53489	0.035038	-7.9837	0.11308	1200
345.27240	-61.36	0.53491	0.035038	-7.9352	0.11478	1200
345.60090	-61.306	0.53494	0.035039	-7.929	0.11445	1200
346.60090	-60.859	0.53506	0.035046	-7.8712	0.11328	1200
347.60090	-60.79	0.53494	0.035042	-7.8665	0.11411	1200
348.60090	-60.645	0.53463	0.035021	-7.8451	0.11288	1200
349.60090	-60.825	0.53463	0.035019	-7.8618	0.11322	1200
350.60090	-60.614	0.53484	0.035031	-7.8384	0.11101	1200.1
351.60090	-60.768	0.53497	0.035039	-7.8603	0.11011	1200.1
352.60090	-61.11	0.53515	0.035052	-7.909	0.11097	1200.1
353.60090	-61.26	0.53501	0.035045	-7.924	0.1118	1200.1
354.60090	-61.738	0.53478	0.035033	-7.9818	0.11095	1200
355.60090	-62.328	0.53491	0.035038	-8.0574	0.11198	1200.1
356.60090	-62.672	0.53518	0.035053	-8.1061	0.11161	1200.1
357.60090	-63.38	0.5354	0.035069	-8.2039	0.11216	1200
358.60090	-64.238	0.53513	0.035057	-8.3085	0.11324	1200
359.60090	-65.342	0.53504	0.03505	-8.4476	0.11364	1200
360.60090	-66.168	0.53517	0.035058	-8.5571	0.11281	1200
361.60090	-66.606	0.53541	0.035071	-8.6191	0.11164	1200.2
362.60090	-66.893	0.53562	0.035088	-8.6561	0.11189	1200.1
363.60090	-67.271	0.53549	0.035081	-8.6973	0.11136	1200.1
364.60090	-67.941	0.53535	0.035071	-8.7783	0.11175	1200.1
365.60090	-68.284	0.53546	0.035074	-8.8284	0.11213	1200.1
366.60090	-68.359	0.5358	0.035096	-8.8388	0.11163	1200.1
367.60090	-68.737	0.53601	0.035111	-8.8959	0.1115	1200
368.60090	-69.238	0.53594	0.035109	-8.9557	0.1122	1200
369.60090	-69.605	0.5357	0.035091	-8.9997	0.11274	1200
370.60090	-69.442	0.53585	0.035098	-8.9784	0.11123	1200
371.60090	-69.317	0.53616	0.035118	-8.9687	0.11121	1200
372.60090	-69.139	0.53616	0.035121	-8.9438	0.1113	1200
373.60090	-68.985	0.53596	0.035106	-8.9255	0.11055	1200
374.60090	-68.52	0.53579	0.035095	-8.8635	0.11208	1199.8
375.60090	-67.469	0.53595	0.035102	-8.7259	0.11122	1199.6
376.60090	-66.683	0.53614	0.035115	-8.6225	0.11164	1199.7
377.60090	-65.696	0.53601	0.035109	-8.4985	0.11099	1199.7
378.60090	-64.146	0.53576	0.035091	-8.299	0.11106	1199.6
379.60090	-62.858	0.53576	0.03509	-8.128	0.11107	1199.5
380.60090	-61.537	0.53589	0.035099	-7.9567	0.11154	1199.6
381.60090	-61.94	0.53567	0.035091	-8.0084	0.11049	1199.8
382.60090	-61.141	0.5354	0.035072	-7.9103	0.11204	1199.8
383.60090	-61.063	0.53524	0.035057	-7.8997	0.11172	1199.8
384.20720	-60.432	0.53536	0.035067	-7.8156	0.11125	1200
385.20720	-59.717	0.5356	0.035084	-7.7229	0.1112	1199.9
385.23380	-59.774	0.53564	0.035087	-7.7295	0.11154	1199.9
386.23380	-60.674	0.53507	0.035053	-7.8447	0.11135	1200.1
387.23380	-60.029	0.53484	0.035038	-7.7618	0.11255	1200.3
388.23380	-59.224	0.53484	0.035036	-7.6577	0.11126	1200.2
389.23380	-60.411	0.53431	0.035002	-7.8129	0.11191	1200.1
390.23380	-59.662	0.53405	0.034987	-7.7187	0.11062	1200.2
391.23380	-59.18	0.53376	0.03497	-7.6563	0.11122	1200.1
392.23380	-58.978	0.53369	0.034961	-7.6306	0.11291	1200.1
393.23380	-58.575	0.53387	0.034972	-7.5712	0.1112	1200.1
394.23380	-58.146	0.53389	0.034973	-7.5173	0.11238	1200
395.23380	-60.219	0.53279	0.034904	-7.7876	0.11103	1200.1
396.23380	-60.153	0.53232	0.034872	-7.7809	0.11203	1200
397.23380	-59.747	0.53232	0.034871	-7.7323	0.10782	1199.9
398.23380	-59.751	0.53259	0.034888	-7.7254	0.109	1199.9
399.23380	-59.809	0.53237	0.034875	-7.7306	0.10903	1200.1
400.23380	-59.581	0.53221	0.034864	-7.7008	0.10999	1200.1
401.23380	-59.51	0.5323	0.034868	-7.6961	0.11107	1200.1
402.23380	-59.448	0.53241	0.034874	-7.69	0.11032	1200.2
403.23380	-59.373	0.53235	0.034874	-7.6772	0.10852	1200.1
404.23380	-59.401	0.53217	0.03486	-7.6775	0.10792	1200.2
405.23380	-59.37	0.53217	0.034858	-7.6783	0.10747	1200.2
406.23380	-59.112	0.53234	0.034872	-7.6454	0.10729	1200.1
407.23380	-59.031	0.53208	0.03486	-7.6393	0.10759	1200.1
408.23380	-61.23	0.53089	0.034781	-7.9181	0.10808	1200.2
409.23380	-61.196	0.53067	0.034763	-7.9111	0.10743	1200.3
410.23380	-60.834	0.53069	0.034766	-7.8669	0.1085	1200.3
411.23380	-60.414	0.53086	0.034778	-7.8092	0.10936	1200.3
412.23380	-60.251	0.53079	0.034777	-7.7933	0.10974	1200.3
413.23380	-59.756	0.53051	0.034761	-7.7254	0.10906	1200.1
414.23380	-59.945	0.53002	0.03473	-7.7446	0.10811	1200
415.23380	-61.251	0.52893	0.034658	-7.9158	0.10739	1200
416.23380	-61.013	0.52879	0.034648	-7.8884	0.10747	1200
417.23380	-61.004	0.52878	0.034646	-7.889	0.10688	1200.1
418.23380	-60.857	0.52886	0.03465	-7.8647	0.10704	1200.2
419.23380	-59.954	0.52872	0.03464	-7.7521	0.1069	1200.2
420.23380	-59.72	0.52864	0.034633	-7.7203	0.10739	1199.9
421.23380	-61.814	0.5237	0.034315	-7.9914	0.10519	1197.9
422.23380	-61.44	0.51799	0.033947	-7.94	0.10758	1193.1
423.23380	-61.021	0.51286	0.033616	-7.8771	0.10728	1187.6
424.23380	-60.687	0.50948	0.033396	-7.8349	0.10755	1181.9
425.14280	-60.465	0.50738	0.033262	-7.8108	0.10712	1176.9
426.14280	-60.501	0.50495	0.033106	-7.8141	0.10813	1171.7
427.14280	-60.624	0.50226	0.032933	-7.822	0.10716	1166.4
428.14280	-60.66	0.49924	0.032737	-7.825	0.10856	1161.4
429.14280	-60.742	0.49539	0.032487	-7.836	0.10874	1156.4
430.14280	-60.982	0.49101	0.032205	-7.8704	0.10838	1151.2
430.37780	-60.887	0.48994	0.032135	-7.8565	0.10861	1150
431.37780	-61.102	0.48517	0.031829	-7.8848	0.10814	1145
432.37780	-61.437	0.48005	0.031498	-7.9212	0.10802	1140
433.37780	-61.495	0.47516	0.031185	-7.9181	0.10891	1134.9
434.37780	-61.433	0.47066	0.030894	-7.9092	0.10841	1130
435.37780	-61.531	0.46592	0.030589	-7.9283	0.10599	1125.1
436.37780	-61.62	0.46103	0.030274	-7.9305	0.10508	1120
437.37780	-61.802	0.45625	0.029966	-7.953	0.10418	1115
438.37780	-61.864	0.45141	0.029651	-7.9516	0.10547	1109.9
439.37780	-61.889	0.44657	0.029336	-7.9632	0.10523	1105
440.37780	-61.979	0.44194	0.029037	-7.9716	0.10496	1099.9
441.37780	-62.124	0.43749	0.028751	-7.978	0.10655	1095
442.37780	-61.919	0.43348	0.028492	-7.9531	0.10487	1090.1
443.37780	-62.017	0.42908	0.028205	-7.9711	0.10565	1085.1
444.37780	-62.194	0.42459	0.027914	-7.9895	0.1056	1080
445.37780	-62.225	0.42034	0.027638	-7.9859	0.10638	1074.9
446.37780	-62.116	0.41633	0.027379	-7.97	0.10656	1070
447.37780	-62.08	0.41225	0.027113	-7.9689	0.10645	1065
448.37780	-62.184	0.40812	0.026843	-7.9793	0.10521	1059.9
449.37780	-62.291	0.4042	0.02659	-7.9874	0.10595	1055
450.37780	-62.297	0.40047	0.026347	-7.9861	0.10445	1049.9
451.37780	-62.233	0.39676	0.026104	-7.9799	0.10554	1044.9
452.37780	-62.358	0.39267	0.025837	-7.9958	0.10471	1040
453.37780	-62.441	0.38852	0.02557	-8.0028	0.10543	1035
454.37780	-62.404	0.38476	0.025328	-7.986	0.10427	1029.9
455.37780	-62.279	0.38107	0.025084	-7.9773	0.10493	1024.9
456.37780	-62.351	0.37722	0.024833	-7.9853	0.10556	1019.9
457.37780	-62.455	0.37344	0.024589	-7.9993	0.10606	1015
458.37780	-62.598	0.36997	0.024363	-8.0082	0.10626	1009.9
459.37780	-62.476	0.36641	0.024132	-7.9924	0.10615	1004.9
460.37780	-62.511	0.10172	0.0067005	-7.8611	0.073024	1000
461.10000	-62.865	0.00063223	4.2657e-05	-7.8528	0.10137	997.48
461.60000	-64.132	-2.2196e-05	2.3241e-06	-8.0113	0.070493	997.15
462.10000	-65.836	0.00027455	1.8506e-05	-8.2193	0.016749	997.37
462.60000	-67.532	0.00061982	4.3623e-05	-8.433	-0.031147	997.75
463.10000	-69.183	0.00082384	5.819e-05	-8.634	-0.098531	998.22
463.60000	-70.64	0.0010249	7.1077e-05	-8.8183	-0.15749	998.68
464.10000	-71.922	0.0012416	8.6164e-05	-8.9832	-0.21506	998.9
464.60000	-73.212	0.0015146	0.00010149	-9.1372	-0.27181	999.28
465.10000	-74.286	0.0016734	0.0001113	-9.2773	-0.33117	999.52
465.60000	-74.96	0.001944	0.00013224	-9.3614	-0.39078	999.6
466.10000	-76.001	0.0020192	0.00013687	-9.4895	-0.44827	999.69
466.60000	-76.665	0.0020806	0.00014067	-9.5756	-0.50606	999.95
467.10000	-77.371	0.0022856	0.0001533	-9.661	-0.5645	999.88
467.60000	-78.147	0.0024854	0.00016679	-9.7633	-0.6231	999.89
468.10000	-78.964	0.0026244	0.0001756	-9.8602	-0.679	999.9
468.60000	-79.688	0.0028993	0.00019471	-9.9575	-0.73665	999.99
469.10000	-80.36	0.0030896	0.00020885	-10.037	-0.79368	999.98
469.60000	-81.007	0.0031839	0.00021466	-10.117	-0.85308	1000.1
470.10000	-81.608	0.0031551	0.00021443	-10.19	-0.91004	1000
470.60000	-82.116	0.0032846	0.00022184	-10.254	-0.96693	1000.1
471.10000	-82.567	0.0033065	0.00022477	-10.317	-1.0243	999.97
471.60000	-83.142	0.0035121	0.00023579	-10.388	-1.081	1000
472.10000	-83.708	0.0035429	0.00023607	-10.452	-1.1397	999.97
472.60000	-84.204	0.0035934	0.00023821	-10.518	-1.1964	1000.1
473.10000	-84.567	0.0037094	0.00024623	-10.566	-1.254	999.97
473.60000	-84.945	0.0039765	0.00026057	-10.613	-1.311	1000
474.10000	-85.111	0.0042033	0.00027828	-10.631	-1.3674	999.97
474.60000	-85.327	0.0043673	0.00028989	-10.656	-1.4256	1000
475.10000	-85.471	0.0045142	0.00029862	-10.681	-1.4836	999.93
475.60000	-86.117	0.0046267	0.00030901	-10.754	-1.5395	999.9
476.10000	-86.617	0.0045128	0.00030046	-10.818	-1.597	999.91
476.60000	-86.976	0.0046341	0.00030606	-10.867	-1.6562	1000
477.10000	-87.402	0.0047969	0.00031698	-10.917	-1.7141	999.96
477.60000	-87.774	0.0050444	0.00033198	-10.967	-1.7724	1000.1
478.10000	-88.173	0.0053783	0.00035391	-11.018	-1.83	1000.2
478.60000	-95.043	0.0067814	0.00044881	-11.874	-1.8869	1000.2
479.10000	-134.05	0.014769	0.0009832	-16.756	-1.9447	1000.2
479.60000	-187.65	-0.016415	-0.0010967	-23.409	-2.0009	1000.4
480.10000	-223.11	-0.064262	-0.0042948	-27.74	-2.0579	1000.5
480.60000	-244.92	-0.11492	-0.0076979	-30.346	-2.1161	1000.4
481.10000	-261.28	-0.16535	-0.011089	-32.267	-2.1735	1000.5
481.60000	-272.66	-0.21425	-0.01439	-33.566	-2.2308	1000.3
482.10000	-283.23	-0.26402	-0.017761	-34.741	-2.2869	1000.1
482.60000	-295.91	-0.31599	-0.021291	-36.168	-2.3451	1000.1
483.10000	-308.6	-0.36716	-0.024783	-37.59	-2.4022	999.88
483.60000	-315.8	-0.41787	-0.028259	-38.333	-2.4592	999.95
484.10000	-328.1	-0.46673	-0.031611	-39.694	-2.5165	999.8
484.60000	-339.67	-0.51831	-0.035164	-40.948	-2.5742	999.9
485.10000	-348.92	-0.57011	-0.038748	-41.907	-2.6321	999.83
485.60000	-359.35	-0.62091	-0.04228	-43.006	-2.688	999.82
486.10000	-367.39	-0.67288	-0.045901	-43.815	-2.7466	999.82
486.60000	-378.08	-0.72188	-0.049325	-44.936	-2.803	999.81
487.10000	-387.91	-0.77259	-0.052877	-45.941	-2.8594	999.81
487.60000	-398.56	-0.8246	-0.056538	-47.026	-2.9175	999.81
488.10000	-404	-0.87561	-0.060145	-47.499	-2.9741	999.77
488.60000	-413.83	-0.92537	-0.063674	-48.484	-3.0321	999.64
489.10000	-423.02	-0.97467	-0.067188	-49.382	-3.0877	999.81
489.60000	-433.26	-1.027	-0.070924	-50.393	-3.1464	999.89
490.10000	-443.9	-1.0782	-0.074592	-51.448	-3.2041	999.94
490.60000	-446.6	-1.1296	-0.078289	-51.561	-3.2613	999.83
491.10000	-457.12	-1.1804	-0.081958	-52.585	-3.3196	999.9
491.60000	-465.64	-1.2307	-0.085606	-53.371	-3.3759	999.85
492.10000	-472.69	-1.2808	-0.089256	-53.979	-3.4323	999.81
492.60000	-480.14	-1.3324	-0.093023	-54.624	-3.4902	999.7
493.10000	-482.33	-1.3824	-0.096685	-54.681	-3.5473	999.8
493.60000	-489.89	-1.4338	-0.10046	-55.319	-3.6057	999.76
494.10000	-496.47	-1.4849	-0.10424	-55.851	-3.6624	999.8
494.60000	-498.93	-1.5361	-0.10804	-55.916	-3.7191	999.74
495.10000	-503.52	-1.5884	-0.11193	-56.213	-3.7778	999.81
495.60000	-502.02	-1.6407	-0.11584	-55.821	-3.838	999.77
496.10000	-506.26	-1.6942	-0.11985	-56.077	-3.8972	999.79
496.60000	-504.12	-1.7453	-0.12369	-55.619	-3.9533	999.77
497.10000	-504.36	-1.799	-0.12775	-55.419	-4.0126	999.77
497.60000	-505.39	-1.8513	-0.13173	-55.317	-4.0709	999.77
498.10000	-499.68	-1.8998	-0.13543	-54.495	-4.127	999.68
498.60000	-496.53	-1.9511	-0.13935	-53.933	-4.1846	999.81
499.10000	-497.29	-2.0034	-0.14336	-53.802	-4.2433	999.82
499.60000	-497.36	-2.0547	-0.14732	-53.599	-4.3005	999.84
500.10000	-492.01	-2.1054	-0.15124	-52.813	-4.3569	999.85
500.60000	-493.97	-2.1574	-0.15529	-52.804	-4.4163	999.73
501.10000	-488.21	-2.2066	-0.15913	-51.997	-4.4708	999.86
501.60000	-491.74	-2.2595	-0.16327	-52.152	-4.5285	999.86
502.10000	-490.02	-2.3127	-0.16746	-51.752	-4.5875	999.89
502.60000	-489.15	-2.3629	-0.17142	-51.456	-4.6453	999.9
503.10000	-492.35	-2.4146	-0.17551	-51.584	-4.7024	999.79
503.60000	-488.83	-2.4668	-0.17967	-50.997	-4.7605	999.69
504.10000	-489.39	-2.5178	-0.18375	-50.851	-4.8164	999.64
504.60000	-489.73	-2.5692	-0.18788	-50.677	-4.8738	999.69
505.10000	-490	-2.6194	-0.19193	-50.501	-4.9316	999.79
505.60000	-491.13	-2.6693	-0.19597	-50.411	-4.9875	999.9
506.10000	-492.09	-2.7208	-0.20015	-50.299	-5.0445	999.94
506.60000	-499.89	-2.7739	-0.20448	-50.876	-5.1019	1000
507.10000	-497.42	-2.8265	-0.20879	-50.407	-5.1612	999.93
507.60000	-500.88	-2.8758	-0.21286	-50.553	-5.2163	999.95
508.10000	-504.14	-2.9278	-0.21715	-50.664	-5.2736	999.94
508.60000	-506.36	-2.9803	-0.22151	-50.663	-5.332	999.98
509.10000	-509.34	-3.0331	-0.22591	-50.737	-5.391	999.88
509.60000	-509.98	-3.0844	-0.23021	-50.587	-5.4495	999.87
510.10000	-513.42	-3.1372	-0.23464	-50.7	-5.5085	999.97
510.60000	-518.45	-3.1895	-0.23906	-50.969	-5.5659	999.95
511.10000	-516.5	-3.2413	-0.24346	-50.555	-5.6231	999.85
511.60000	-521.04	-3.294	-0.24795	-50.774	-5.6814	999.97
512.10000	-521.57	-3.3442	-0.25225	-50.603	-5.7388	1000
512.60000	-526.03	-3.3961	-0.2567	-50.812	-5.7965	999.92
513.10000	-526.61	-3.4481	-0.2612	-50.637	-5.8535	999.97
513.60000	-528.44	-3.4992	-0.26563	-50.587	-5.9095	999.92
514.10000	-531.51	-3.5525	-0.27028	-50.645	-5.9696	999.9
514.60000	-530.1	-3.6019	-0.27461	-50.296	-6.0255	999.89
515.10000	-533.11	-3.6534	-0.27914	-50.352	-6.0828	999.95
515.60000	-538.41	-3.7055	-0.28373	-50.619	-6.1407	999.96
516.10000	-537.16	-3.7586	-0.28844	-50.265	-6.1989	1000.1
516.60000	-539.28	-3.8086	-0.2929	-50.238	-6.2558	1000.1
517.10000	-541.65	-3.86	-0.29751	-50.226	-6.3114	1000.1
517.60000	-546.45	-3.9136	-0.30233	-50.43	-6.3707	1000.1
518.10000	-549.99	-3.9669	-0.30715	-50.513	-6.4298	1000.1
518.60000	-550.61	-4.0167	-0.31168	-50.343	-6.4852	1000.1
519.10000	-552.46	-4.0671	-0.31628	-50.277	-6.5432	1000.2
519.60000	-553.02	-4.1181	-0.32095	-50.093	-6.5998	1000
520.10000	-558.54	-4.1697	-0.3257	-50.351	-6.6566	1000.1
520.60000	-562.38	-4.2214	-0.33049	-50.46	-6.7141	1000
521.10000	-562.04	-4.2731	-0.3353	-50.19	-6.7727	1000.1
521.60000	-566.6	-4.3231	-0.33996	-50.353	-6.8296	1000
522.10000	-570.95	-4.3744	-0.34478	-50.497	-6.8867	999.92
522.60000	-571.25	-4.427	-0.34974	-50.277	-6.9442	999.89
523.10000	-575.09	-4.478	-0.35459	-50.37	-7.0006	999.83
523.60000	-581.76	-4.5298	-0.35952	-50.7	-7.0605	999.83
524.10000	-584.44	-4.5798	-0.36431	-50.692	-7.117	999.73
524.60000	-588.43	-4.6304	-0.36917	-50.796	-7.1739	999.77
525.10000	-588.64	-4.6835	-0.37431	-50.551	-7.2327	999.78
525.60000	-593.68	-4.7349	-0.3793	-50.727	-7.2897	999.9
526.10000	-596.73	-4.7849	-0.38418	-50.745	-7.3474	999.91
526.60000	-602.25	-4.8359	-0.38919	-50.957	-7.4049	999.96
527.10000	-606.07	-4.8879	-0.39433	-51.015	-7.4633	1000.1
527.60000	-609.97	-4.9413	-0.39961	-51.076	-7.5215	999.99
528.10000	-613.14	-4.9935	-0.40482	-51.07	-7.5804	999.91
528.60000	-619.63	-5.0449	-0.40997	-51.344	-7.6385	1000
529.10000	-625.28	-5.0982	-0.41534	-51.544	-7.6984	1000.1
529.60000	-627.5	-5.149	-0.42048	-51.46	-7.7555	1000
530.10000	-623.01	-5.1979	-0.42546	-50.831	-7.8102	1000
530.60000	-632.84	-5.2483	-0.43061	-51.371	-7.8681	1000
531.10000	-640.34	-5.2991	-0.43584	-51.709	-7.9256	1000
531.60000	-646.76	-5.3513	-0.44124	-51.944	-7.9838	1000
532.10000	-647.62	-5.4017	-0.44648	-51.743	-8.0405	999.93
532.60000	-652.49	-5.4533	-0.45186	-51.856	-8.0982	1000.1
533.10000	-655.45	-5.5036	-0.45714	-51.813	-8.1566	1000.1
533.60000	-660.3	-5.554	-0.46247	-51.921	-8.2126	1000.1
534.10000	-666.45	-5.6055	-0.46793	-52.118	-8.27	1000.1
534.60000	-672.98	-5.6577	-0.47351	-52.337	-8.3286	1000.2
535.10000	-674.8	-5.7078	-0.47888	-52.194	-8.3859	1000.2
535.60000	-683.17	-5.7585	-0.48434	-52.555	-8.4435	1000.2
536.10000	-688.25	-5.8081	-0.48973	-52.665	-8.4993	1000.2
536.60000	-695.02	-5.8601	-0.49541	-52.876	-8.557	1000.1
537.10000	-699.77	-5.9111	-0.501	-52.945	-8.6135	1000.1
537.60000	-707.17	-5.9625	-0.50667	-53.202	-8.6731	1000
538.10000	-713.28	-6.0142	-0.51241	-53.354	-8.7302	999.96
538.60000	-718.2	-6.0646	-0.51802	-53.416	-8.7862	1000
539.10000	-728.84	-6.116	-0.52379	-53.9	-8.8438	999.96
539.60000	-737.03	-6.1681	-0.52968	-54.181	-8.9018	999.94
540.10000	-738.75	-6.2172	-0.53525	-54.007	-8.9579	999.98
540.60000	-749.54	-6.2685	-0.54111	-54.481	-9.0157	1000
541.10000	-760.84	-6.3218	-0.54723	-54.962	-9.0755	1000
541.60000	-767.51	-6.3729	-0.55314	-55.116	-9.1324	1000
542.10000	-771.66	-6.4247	-0.55916	-55.082	-9.1905	1000
542.60000	-782.73	-6.476	-0.56516	-55.54	-9.2487	1000
543.10000	-790.95	-6.5293	-0.57144	-55.772	-9.3068	1000
543.60000	-796.4	-6.5801	-0.57746	-55.818	-9.3637	1000.1
544.10000	-804.37	-6.6326	-0.5837	-56.03	-9.4223	1000.2
544.60000	-814.09	-6.6833	-0.58978	-56.358	-9.4802	1000.2
545.10000	-823.37	-6.734	-0.59589	-56.651	-9.5363	1000.2
545.60000	-829.68	-6.7866	-0.60229	-56.724	-9.5948	1000.2
546.10000	-840.4	-6.8378	-0.60854	-57.098	-9.6515	1000.2
546.60000	-856.01	-6.8896	-0.61491	-57.787	-9.7101	1000.1
547.10000	-860.03	-6.94	-0.62113	-57.704	-9.7682	999.98
547.60000	-870.24	-6.9906	-0.62742	-58.021	-9.8243	999.92
548.10000	-881	-7.0424	-0.63393	-58.354	-9.8816	999.83
548.60000	-888.94	-7.0956	-0.64063	-58.491	-9.9394	999.8
549.10000	-902.23	-7.1454	-0.64697	-58.99	-9.9965	999.86
549.60000	-914.97	-7.1954	-0.65334	-59.442	-10.054	999.89
550.10000	-929.46	-7.2471	-0.65998	-59.985	-10.112	999.98
550.60000	-937.56	-7.2987	-0.66666	-60.105	-10.168	1000.1
551.10000	-948.88	-7.3493	-0.67326	-60.428	-10.225	1000.1
551.60000	-955.93	-7.4002	-0.67994	-60.471	-10.284	1000.3
552.10000	-971.6	-7.4492	-0.68641	-61.069	-10.339	1000.3
552.60000	-987.63	-7.5015	-0.69335	-61.649	-10.398	1000.3
553.10000	-1002.4	-7.5524	-0.70016	-62.143	-10.456	1000.3
553.60000	-1015.1	-7.6037	-0.70707	-62.5	-10.513	1000.3
554.10000	-1025.1	-7.6532	-0.71378	-62.691	-10.57	1000.3
554.60000	-1044.4	-7.7035	-0.72067	-63.432	-10.626	1000.2
555.10000	-1058.7	-7.7542	-0.72764	-63.851	-10.683	1000
555.60000	-1077.9	-7.806	-0.73482	-64.55	-10.742	999.97
556.10000	-1085.4	-7.8552	-0.74167	-64.557	-10.798	999.88
556.60000	-1104.4	-7.9044	-0.74858	-65.227	-10.854	999.85
557.10000	-1124.8	-7.9564	-0.75594	-65.953	-10.913	999.85
557.60000	-1149.4	-8.008	-0.76329	-66.897	-10.972	999.89
558.10000	-1161.2	-8.0595	-0.77069	-67.084	-11.03	1000
558.60000	-1186.4	-8.1121	-0.77829	-68.023	-11.09	1000.1
559.10000	-1201.9	-8.1632	-0.78574	-68.401	-11.148	1000.2
559.60000	-1226.4	-8.2148	-0.7933	-69.266	-11.206	1000.4
560.10000	-1239.8	-8.2639	-0.80057	-69.513	-11.261	1000.5
560.60000	-1260.3	-8.3156	-0.8083	-70.125	-11.32	1000.6
561.10000	-1280.6	-8.3644	-0.81561	-70.733	-11.377	1000.6
561.60000	-1300.7	-8.4134	-0.82302	-71.314	-11.434	1000.4
562.10000	-1320	-8.4646	-0.83082	-71.81	-11.491	1000.2
562.60000	-1353.6	-8.5169	-0.83885	-73.049	-11.55	1000.1
563.10000	-1368.1	-8.5655	-0.84638	-73.275	-11.606	1000.1
563.60000	-1394.3	-8.614	-0.85396	-74.119	-11.663	1000.4
564.10000	-1427.8	-8.6647	-0.86192	-75.293	-11.722	1000.2
564.60000	-1453.3	-8.7151	-0.8699	-76.03	-11.779	1000
565.10000	-1479.4	-8.7648	-0.87785	-76.784	-11.836	999.71
565.25550	-1492.6	-8.7804	-0.88034	-77.277	-11.854	999.61
565.75550	-1307.1	-8.8042	-0.88418	-67.416	-11.871	921.87
566.25550	-1150.1	-8.806	-0.88446	-59.302	-11.867	846.12
566.75550	-1024.1	-8.8053	-0.88435	-52.807	-11.861	805.61
567.25550	-918.46	-8.8046	-0.88423	-47.368	-11.856	775.98
567.75550	-812.82	-8.8015	-0.88375	-41.941	-11.849	753.64
568.25550	-707.29	-8.7974	-0.88307	-36.519	-11.842	736.09
568.75550	-628.28	-8.7949	-0.88267	-32.452	-11.837	722.2
569.25550	-553.01	-8.7929	-0.88235	-28.575	-11.831	710.39
569.75550	-486.26	-8.791	-0.88205	-25.133	-11.825	700.05
570.25550	-413.27	-8.7882	-0.88159	-21.369	-11.817	690.37
570.75550	-360.8	-8.7867	-0.88135	-18.662	-11.812	681.29
571.25550	-306.1	-8.784	-0.88093	-15.84	-11.804	671.9
571.75550	-267.29	-8.7827	-0.88072	-13.832	-11.799	662.26
572.25550	-229.78	-8.7806	-0.88037	-11.898	-11.793	652.84
572.75550	-193.83	-8.7777	-0.87991	-10.039	-11.787	643.85
573.25550	-164.5	-8.7752	-0.87951	-8.5219	-11.78	634.88
573.75550	-138.44	-8.7729	-0.87914	-7.1769	-11.774	625.62
574.25550	-116.24	-8.7702	-0.8787	-6.0281	-11.767	616.81
574.75550	-94.671	-8.7684	-0.87842	-4.9103	-11.76	608.27
575.25550	-81.438	-8.7693	-0.87856	-4.2223	-11.754	599.92
575.75550	-73.671	-8.7721	-0.87901	-3.8202	-11.749	591.63
576.25550	-65.424	-8.7759	-0.87963	-3.3886	-11.741	583.48
576.75550	-60.015	-8.7786	-0.88006	-3.1063	-11.732	575.86
577.25550	-56.111	-8.78	-0.88029	-2.9057	-11.726	568.15
577.75550	-52.924	-8.7813	-0.88048	-2.7392	-11.717	560.79
578.25550	-50.542	-8.7823	-0.88065	-2.617	-11.711	553.55
578.75550	-48.614	-8.7832	-0.8808	-2.5164	-11.705	546.52
579.25550	-47.365	-8.784	-0.88093	-2.4516	-11.696	539.85
579.75550	-46.51	-8.7847	-0.88104	-2.409	-11.689	532.72
580.25550	-45.861	-8.7853	-0.88114	-2.3727	-11.682	526.03
580.75550	-45.511	-8.7857	-0.8812	-2.358	-11.675	519.26
581.25550	-45.283	-8.7861	-0.88127	-2.3413	-11.667	512.27
581.75550	-45.278	-8.7864	-0.88132	-2.3415	-11.661	505.44
582.25550	-45.106	-8.7868	-0.88139	-2.3347	-11.653	498.43
582.75550	-45.083	-8.7872	-0.88145	-2.3325	-11.644	491.7
583.25550	-45.044	-8.7876	-0.88151	-2.3306	-11.637	485.17
583.75550	-45.084	-8.7879	-0.88156	-2.3324	-11.631	478.76
584.25550	-45.22	-8.7883	-0.88162	-2.3392	-11.624	472.47
584.75550	-45.195	-8.7886	-0.88167	-2.3381	-11.616	466.27
585.25550	-45.233	-8.7888	-0.88171	-2.3389	-11.608	460.1
585.75550	-45.258	-8.7891	-0.88175	-2.3406	-11.6	454.26
586.25550	-45.301	-8.7895	-0.88182	-2.3407	-11.593	448.35
586.75550	-45.45	-8.7898	-0.88186	-2.349	-11.587	442.68
587.25550	-45.408	-8.7901	-0.8819	-2.3477	-11.58	437.11
587.75550	-45.6	-8.7902	-0.88193	-2.3568	-11.573	431.76
588.25550	-45.493	-8.7905	-0.88198	-2.3522	-11.567	426.62
588.75550	-45.607	-8.7907	-0.882	-2.3563	-11.561	421.37
589.25550	-45.634	-8.7909	-0.88204	-2.3601	-11.554	416.34
589.75550	-45.653	-8.7911	-0.88207	-2.3582	-11.547	411.53
590.25550	-45.731	-8.7914	-0.8821	-2.3631	-11.539	406.59
590.75550	-45.689	-8.7916	-0.88214	-2.3641	-11.533	401.96
591.25550	-45.706	-8.7917	-0.88217	-2.3612	-11.525	397.63
591.75550	-45.845	-8.792	-0.88221	-2.3699	-11.519	393.1
592.25550	-45.771	-8.7921	-0.88223	-2.3664	-11.51	388.72
592.75550	-45.836	-8.7923	-0.88226	-2.3661	-11.504	384.44
593.25550	-45.836	-8.7925	-0.8823	-2.3702	-11.496	380.1
593.75550	-45.81	-8.7928	-0.88233	-2.3654	-11.491	375.67
594.25550	-45.815	-8.7929	-0.88235	-2.3685	-11.481	371.26
594.75550	-45.739	-8.793	-0.88237	-2.3626	-11.476	367.12
595.25550	-45.982	-8.7932	-0.8824	-2.3764	-11.467	363.05
595.75550	-45.886	-8.7933	-0.88242	-2.3738	-11.46	358.92
596.25550	-45.944	-8.7935	-0.88245	-2.3718	-11.452	354.84
596.75550	-46.128	-8.7936	-0.88247	-2.3863	-11.445	350.79
597.25550	-45.989	-8.7938	-0.8825	-2.3757	-11.439	346.8
597.75550	-46.108	-8.7938	-0.88251	-2.3836	-11.431	342.7
598.25550	-46.114	-8.794	-0.88252	-2.3863	-11.423	338.67
598.75550	-46.08	-8.7941	-0.88254	-2.3792	-11.416	334.56
599.25550	-46.02	-8.7941	-0.88255	-2.3782	-11.408	330.52
599.75550	-45.939	-8.7942	-0.88256	-2.3736	-11.401	326.46
600.25550	-46.176	-8.7943	-0.88258	-2.3856	-11.394	322.47
600.75550	-45.94	-8.7944	-0.88259	-2.3743	-11.387	318.46
601.25550	-46.143	-8.7945	-0.88262	-2.3847	-11.379	314.57
601.75550	-46.101	-8.7946	-0.88264	-2.3834	-11.373	310.43
602.25550	-46.079	-8.7947	-0.88266	-2.3799	-11.367	306.42
602.75550	-46.178	-8.7949	-0.88268	-2.3861	-11.361	302.56
603.25550	-46.026	-8.795	-0.8827	-2.3769	-11.354	298.65
603.75550	-46.137	-8.795	-0.8827	-2.3818	-11.348	294.89
604.25550	-46.096	-8.7952	-0.88273	-2.381	-11.34	291.07
604.75550	-46.082	-8.7952	-0.88273	-2.3791	-11.332	287.31
605.25550	-46.298	-8.7953	-0.88274	-2.3896	-11.326	283.69
605.75550	-46.049	-8.7954	-0.88276	-2.3797	-11.317	280.16
606.25550	-46.083	-8.7955	-0.88277	-2.3795	-11.311	276.5
606.75550	-46.074	-8.7956	-0.88279	-2.3812	-11.305	273.14
607.25550	-46.096	-8.7956	-0.8828	-2.3787	-11.297	269.88
607.75550	-46.073	-8.7957	-0.88282	-2.3811	-11.29	266.49
608.25550	-46.004	-8.7957	-0.88282	-2.3791	-11.283	263.18
608.75550	-46.104	-8.7957	-0.88282	-2.3809	-11.277	260.26
609.25550	-46.063	-8.7958	-0.88283	-2.3819	-11.267	257.33
609.75550	-45.971	-8.796	-0.88287	-2.375	-11.262	254.56
610.25550	-46.116	-8.796	-0.88287	-2.3811	-11.253	251.75
610.75550	-46.031	-8.7961	-0.88288	-2.3789	-11.246	249.31
611.25550	-45.996	-8.7962	-0.8829	-2.3757	-11.239	246.7
611.75550	-46.004	-8.7963	-0.8829	-2.3758	-11.231	244.19
612.25550	-45.89	-8.7963	-0.88292	-2.371	-11.225	241.84
612.75550	-46.058	-8.7964	-0.88293	-2.3781	-11.217	239.61
613.25550	-45.874	-8.7965	-0.88294	-2.3689	-11.211	237.33
613.75550	-45.906	-8.7965	-0.88294	-2.3689	-11.202	235.35
614.25550	-45.896	-8.7966	-0.88296	-2.3718	-11.194	233.32
614.75550	-45.759	-8.7966	-0.88295	-2.3628	-11.189	231.3
615.25550	-45.831	-8.7967	-0.88297	-2.3653	-11.179	229.47
615.75550	-45.603	-8.7967	-0.88297	-2.3566	-11.174	227.6
616.25550	-45.608	-8.7968	-0.88299	-2.3547	-11.166	225.89
616.75550	-45.722	-8.7967	-0.88297	-2.363	-11.158	224.21
617.25550	-45.513	-8.7968	-0.88298	-2.3487	-11.151	222.64
617.75550	-45.636	-8.7969	-0.883	-2.3562	-11.144	220.98
618.25550	-45.48	-8.797	-0.88302	-2.3494	-11.137	219.43
618.75550	-45.555	-8.7969	-0.88301	-2.3503	-11.13	217.86
619.25550	-45.548	-8.7971	-0.88303	-2.3528	-11.122	216.37
619.75550	-45.387	-8.797	-0.88302	-2.3454	-11.116	214.94
620.25550	-45.52	-8.7971	-0.88302	-2.3507	-11.108	213.41
620.75550	-45.323	-8.7971	-0.88303	-2.3436	-11.102	211.93
621.25550	-45.268	-8.7971	-0.88302	-2.3376	-11.095	210.48
621.75550	-45.003	-8.797	-0.88302	-2.3242	-11.086	209.1
622.25550	-44.801	-8.797	-0.88302	-2.3132	-11.082	207.7
622.75550	-44.985	-8.7971	-0.88303	-2.3247	-11.075	206.18
623.25550	-44.879	-8.7971	-0.88303	-2.3209	-11.068	204.77
623.75550	-44.862	-8.797	-0.88302	-2.317	-11.061	203.26
624.25550	-44.894	-8.797	-0.88302	-2.3196	-11.054	201.8
624.75550	-44.657	-8.797	-0.88302	-2.3054	-11.048	200.21
625.25550	-44.838	-8.797	-0.88302	-2.3146	-11.04	198.79
625.75550	-44.684	-8.797	-0.88302	-2.3064	-11.031	197.34
626.25550	-44.747	-8.7972	-0.88304	-2.3097	-11.025	195.75
626.75550	-44.655	-8.7972	-0.88304	-2.3072	-11.018	194.18
627.25550	-44.516	-8.7972	-0.88305	-2.2992	-11.01	192.58
627.75550	-44.605	-8.7971	-0.88303	-2.3034	-11.003	190.97
628.25550	-44.577	-8.7972	-0.88304	-2.3015	-10.996	189.31
628.75550	-44.377	-8.7971	-0.88304	-2.2912	-10.989	187.76
629.25550	-44.458	-8.797	-0.88302	-2.295	-10.982	186.14
629.75550	-44.13	-8.7971	-0.88303	-2.2793	-10.975	184.47
630.25550	-44.172	-8.797	-0.88302	-2.2805	-10.967	182.86
630.75550	-43.051	-8.7968	-0.88299	-2.2238	-10.96	181.19
631.25550	-43.048	-8.7967	-0.88298	-2.2215	-10.953	179.5
631.75550	-43.155	-8.7967	-0.88298	-2.2288	-10.946	177.79
632.25550	-43.137	-8.7968	-0.88298	-2.229	-10.937	176.17
632.75550	-43.294	-8.7967	-0.88298	-2.2347	-10.93	174.5
633.25550	-43.367	-8.7967	-0.88297	-2.2433	-10.923	172.85
633.75550	-43.17	-8.7966	-0.88297	-2.2281	-10.915	171.11
634.25550	-43.236	-8.7966	-0.88296	-2.2331	-10.907	169.54
634.75550	-43.235	-8.7966	-0.88297	-2.2321	-10.901	167.86
635.25550	-43.301	-8.7966	-0.88297	-2.236	-10.894	166.32
635.75550	-43.116	-8.7966	-0.88297	-2.2288	-10.888	164.6
636.25550	-43.07	-8.7966	-0.88296	-2.2223	-10.879	163.04
636.75550	-43.107	-8.7966	-0.88297	-2.2268	-10.873	161.42
637.25550	-42.895	-8.7967	-0.88297	-2.2159	-10.867	159.78
637.75550	-42.883	-8.7967	-0.88298	-2.2174	-10.858	158.23
638.25550	-42.978	-8.7966	-0.88296	-2.2217	-10.852	156.57
638.75550	-42.674	-8.7966	-0.88297	-2.2049	-10.847	155.21
639.25550	-42.781	-8.7967	-0.88297	-2.2105	-10.839	153.73
639.75550	-42.57	-8.7966	-0.88296	-2.1985	-10.831	152.14
640.25550	-42.573	-8.7966	-0.88296	-2.1998	-10.825	150.69
640.75550	-42.549	-8.7966	-0.88296	-2.1986	-10.817	149.2
641.25550	-42.315	-8.7966	-0.88296	-2.1859	-10.81	147.71
641.75550	-42.567	-8.7967	-0.88296	-2.1975	-10.803	146.21
642.25550	-42.318	-8.7966	-0.88296	-2.188	-10.794	144.9
642.75550	-42.255	-8.7967	-0.88296	-2.1819	-10.788	143.52
643.25550	-42.265	-8.7967	-0.88297	-2.1846	-10.782	142.22
643.75550	-41.996	-8.7966	-0.88296	-2.1685	-10.774	140.81
644.25550	-42.102	-8.7966	-0.88296	-2.1743	-10.767	139.51
644.75550	-41.897	-8.7967	-0.88296	-2.1663	-10.759	138.16
645.25550	-41.915	-8.7967	-0.88297	-2.1649	-10.752	136.9
645.75550	-41.833	-8.7967	-0.88296	-2.162	-10.744	135.57
646.25550	-41.693	-8.7967	-0.88296	-2.1541	-10.737	134.39
646.75550	-41.669	-8.7967	-0.88296	-2.1512	-10.73	133.08
647.25550	-41.6	-8.7966	-0.88295	-2.1485	-10.724	131.89
647.75550	-41.519	-8.7966	-0.88295	-2.1437	-10.717	130.68
648.25550	-41.536	-8.7965	-0.88294	-2.1443	-10.707	129.55
648.75550	-41.144	-8.7965	-0.88293	-2.1239	-10.7	128.38
649.25550	-41.173	-8.7965	-0.88293	-2.1243	-10.693	127.29
649.75550	-40.993	-8.7965	-0.88293	-2.1193	-10.685	126.19
650.25550	-40.901	-8.7965	-0.88293	-2.1113	-10.679	125.02
650.75550	-40.934	-8.7965	-0.88293	-2.1159	-10.67	123.94
651.25550	-40.635	-8.7965	-0.88293	-2.1007	-10.665	122.9
651.75550	-40.754	-8.7965	-0.88294	-2.104	-10.657	121.78
652.25550	-40.462	-8.7965	-0.88294	-2.0919	-10.649	120.8
652.75550	-40.443	-8.7965	-0.88293	-2.0874	-10.642	119.71
653.25550	-40.377	-8.7965	-0.88294	-2.0878	-10.634	118.72
653.75550	-40.173	-8.7965	-0.88293	-2.0747	-10.628	117.7
654.25550	-40.166	-8.7964	-0.88293	-2.0727	-10.621	116.7
654.75550	-39.933	-8.7965	-0.88294	-2.0644	-10.613	115.87
655.25550	-39.833	-8.7964	-0.88293	-2.0571	-10.606	114.91
655.75550	-39.798	-8.7963	-0.88292	-2.0576	-10.6	113.93
656.25550	-39.617	-8.7963	-0.88291	-2.0478	-10.593	112.96
656.75550	-39.646	-8.7961	-0.88288	-2.0457	-10.583	112.07
657.25550	-39.365	-8.7961	-0.88288	-2.0356	-10.577	111.25
657.75550	-39.396	-8.7961	-0.88288	-2.0332	-10.57	110.37
658.25550	-39.24	-8.7961	-0.88287	-2.0283	-10.562	109.58
658.75550	-38.989	-8.796	-0.88287	-2.0134	-10.554	108.69
659.25550	-39.008	-8.796	-0.88287	-2.0165	-10.549	107.83
659.75550	-38.852	-8.7961	-0.88287	-2.0092	-10.541	106.87
660.25550	-38.812	-8.796	-0.88286	-2.0038	-10.536	106.19
660.75550	-38.657	-8.7962	-0.8829	-1.9996	-10.527	105.4
661.25550	-38.502	-8.7962	-0.8829	-1.9873	-10.522	104.47
661.75550	-38.486	-8.7962	-0.8829	-1.987	-10.515	103.75
662.25550	-38.233	-8.7962	-0.8829	-1.9758	-10.507	103.05
662.75550	-38.239	-8.7962	-0.88288	-1.9734	-10.501	102.43
663.25550	-38.079	-8.7962	-0.8829	-1.9652	-10.491	101.52
663.75550	-37.838	-8.7961	-0.88289	-1.955	-10.486	100.88
664.25550	-37.929	-8.7961	-0.88288	-1.9601	-10.477	100.09
664.75550	-37.732	-8.7961	-0.88288	-1.9495	-10.471	99.278
665.25550	-37.716	-8.796	-0.88286	-1.945	-10.464	98.618
665.75550	-37.589	-8.7961	-0.88287	-1.944	-10.456	97.954
666.25550	-37.325	-8.7961	-0.88288	-1.9269	-10.448	97.267
666.75550	-37.324	-8.7961	-0.88286	-1.9294	-10.441	96.611
667.25550	-37.1	-8.7961	-0.88287	-1.9175	-10.434	95.944
667.75550	-37.095	-8.7961	-0.88288	-1.9134	-10.427	95.233
668.25550	-36.968	-8.796	-0.88286	-1.9118	-10.418	94.68
668.75550	-36.819	-8.796	-0.88286	-1.9019	-10.411	94.007
669.25550	-36.865	-8.796	-0.88285	-1.905	-10.404	93.348
669.75550	-36.708	-8.796	-0.88286	-1.8977	-10.397	92.805
670.25550	-36.536	-8.7961	-0.88287	-1.8864	-10.388	92.118
670.75550	-36.563	-8.7961	-0.88287	-1.8913	-10.381	91.506
671.25550	-36.189	-8.796	-0.88286	-1.8704	-10.374	90.887
671.75550	-36.203	-8.796	-0.88286	-1.8712	-10.367	90.35
672.25550	-35.996	-8.7961	-0.88286	-1.8629	-10.36	89.829
672.75550	-35.948	-8.796	-0.88285	-1.8564	-10.352	89.214
673.25550	-35.861	-8.796	-0.88285	-1.8529	-10.347	88.705
673.75550	-35.609	-8.796	-0.88285	-1.8389	-10.34	88.126
674.25550	-35.617	-8.796	-0.88285	-1.8406	-10.332	87.594
674.75550	-35.441	-8.7961	-0.88287	-1.8312	-10.325	87.031
675.25550	-35.346	-8.7961	-0.88286	-1.8252	-10.318	86.516
675.75550	-35.317	-8.7961	-0.88287	-1.825	-10.311	86.001
676.25550	-35.069	-8.7961	-0.88288	-1.812	-10.303	85.48
676.75550	-35.052	-8.796	-0.88286	-1.8111	-10.298	84.982
677.25550	-34.829	-8.796	-0.88286	-1.8008	-10.289	84.474
677.75550	-34.637	-8.796	-0.88285	-1.7899	-10.283	83.985
678.25550	-34.863	-8.796	-0.88285	-1.8029	-10.274	83.436
678.75550	-34.692	-8.7962	-0.88289	-1.7936	-10.267	82.969
679.25550	-34.802	-8.7965	-0.88293	-1.7942	-10.261	82.494
679.75550	-34.494	-8.7966	-0.88295	-1.7827	-10.251	82.026
680.25550	-34.35	-8.7966	-0.88296	-1.7734	-10.246	81.525
680.75550	-34.375	-8.7967	-0.88297	-1.7762	-10.239	81.092
681.25550	-34.017	-8.7969	-0.883	-1.7546	-10.232	80.654
681.75550	-33.977	-8.797	-0.88303	-1.7532	-10.225	80.197
682.25550	-33.808	-8.7971	-0.88304	-1.7467	-10.218	79.719
682.75550	-33.641	-8.7972	-0.88305	-1.7377	-10.21	79.337
683.25550	-33.632	-8.7973	-0.88307	-1.7357	-10.202	78.883
683.75550	-33.332	-8.7974	-0.88308	-1.7246	-10.195	78.395
684.25550	-33.334	-8.7974	-0.88309	-1.7179	-10.187	78.043
684.75550	-33.133	-8.7975	-0.8831	-1.711	-10.181	77.51
685.25550	-33.077	-8.7976	-0.88312	-1.7074	-10.173	77.181
685.75550	-32.981	-8.7976	-0.88312	-1.7018	-10.165	76.748
686.25550	-32.728	-8.7976	-0.88313	-1.6896	-10.159	76.426
686.75550	-32.762	-8.7977	-0.88314	-1.6918	-10.151	76.005
687.25550	-32.666	-8.7977	-0.88315	-1.6893	-10.143	75.564
687.75550	-32.47	-8.7978	-0.88316	-1.6766	-10.137	75.257
688.25550	-32.477	-8.7978	-0.88314	-1.6782	-10.13	74.78
688.75550	-32.157	-8.7978	-0.88316	-1.6609	-10.121	74.463
689.25550	-32.267	-8.798	-0.88319	-1.6666	-10.113	73.942
689.75550	-32.122	-8.798	-0.88319	-1.6592	-10.107	73.607
690.25550	-31.912	-8.7981	-0.8832	-1.6489	-10.101	73.242
690.75550	-31.927	-8.7982	-0.88321	-1.649	-10.093	72.839
691.25550	-31.767	-8.7981	-0.8832	-1.6401	-10.085	72.477
691.75550	-31.746	-8.7982	-0.88321	-1.6382	-10.078	72.162
692.25550	-31.687	-8.7983	-0.88322	-1.6367	-10.071	71.699
692.75550	-31.523	-8.7983	-0.88322	-1.6266	-10.064	71.335
693.25550	-31.547	-8.7982	-0.88322	-1.6278	-10.055	70.982
693.75550	-31.253	-8.7982	-0.88321	-1.616	-10.048	70.776
694.25550	-31.135	-8.7982	-0.88321	-1.6086	-10.041	70.348
694.75550	-31.093	-8.7982	-0.88321	-1.6061	-10.034	70.082
695.25550	-30.91	-8.7983	-0.88323	-1.5969	-10.028	69.655
695.75550	-30.934	-8.7983	-0.88323	-1.5986	-10.019	69.3
696.25550	-30.778	-8.7984	-0.88324	-1.5896	-10.013	69.016
696.75550	-30.778	-8.7984	-0.88324	-1.5879	-10.006	68.703
697.25550	-30.655	-8.7985	-0.88325	-1.583	-9.9986	68.34
697.75550	-30.441	-8.7985	-0.88326	-1.572	-9.9911	68.017
698.25550	-30.347	-8.7986	-0.88328	-1.5676	-9.9867	67.688
698.75550	-30.258	-8.7987	-0.88329	-1.5641	-9.9797	67.386
699.25550	-30.163	-8.7987	-0.8833	-1.5553	-9.9718	67.106
699.75550	-30.129	-8.7988	-0.88331	-1.5542	-9.9679	66.825
700.25550	-29.903	-8.7988	-0.88331	-1.5445	-9.9577	66.526
700.75550	-30.035	-8.7988	-0.88331	-1.5487	-9.9506	66.204
701.25550	-29.839	-8.7989	-0.88332	-1.5414	-9.944	65.922
701.75550	-29.71	-8.7989	-0.88332	-1.5332	-9.9344	65.639
702.25550	-29.618	-8.7989	-0.88332	-1.53	-9.927	65.379
702.75550	-29.462	-8.799	-0.88334	-1.5223	-9.9199	65.087
703.25550	-29.442	-8.799	-0.88335	-1.5208	-9.9138	64.784
703.75550	-29.345	-8.799	-0.88334	-1.5173	-9.9052	64.538
704.25550	-29.17	-8.7991	-0.88335	-1.5049	-9.899	64.235
704.75550	-29.093	-8.7991	-0.88336	-1.5037	-9.8906	64.045
705.25550	-28.925	-8.7991	-0.88336	-1.4936	-9.8844	63.782
705.75550	-28.957	-8.7992	-0.88336	-1.4924	-9.878	63.517
706.25550	-28.731	-8.7991	-0.88337	-1.4866	-9.8702	63.3
706.75550	-28.551	-8.7992	-0.88338	-1.4736	-9.8652	63.01
707.25550	-28.637	-8.7992	-0.88338	-1.4797	-9.8576	62.762
707.75550	-28.385	-8.7993	-0.8834	-1.4672	-9.8512	62.476
708.25550	-28.399	-8.7993	-0.8834	-1.4633	-9.8427	62.238
708.75550	-28.324	-8.7992	-0.88338	-1.4639	-9.8349	61.99
709.25550	-28.088	-8.7993	-0.88339	-1.4508	-9.8268	61.748
709.75550	-28.119	-8.7993	-0.88339	-1.4506	-9.82	61.422
710.25550	-27.897	-8.7994	-0.88342	-1.4405	-9.813	61.19
710.75550	-27.944	-8.7995	-0.88342	-1.4397	-9.8061	60.989
711.25550	-27.871	-8.7995	-0.88342	-1.4401	-9.7979	60.755
711.75550	-27.753	-8.7996	-0.88344	-1.434	-9.7914	60.418
712.25550	-27.768	-8.7995	-0.88342	-1.4335	-9.7831	60.06
712.75550	-27.414	-8.7995	-0.88343	-1.4176	-9.7762	59.845
713.25550	-27.337	-8.7995	-0.88343	-1.4108	-9.7701	59.626
713.75550	-27.409	-8.7996	-0.88345	-1.4158	-9.7621	59.516
714.25550	-27.26	-8.7997	-0.88345	-1.4064	-9.7556	59.162
714.75550	-27.211	-8.7997	-0.88347	-1.4067	-9.7471	59.088
715.25550	-27.132	-8.7997	-0.88345	-1.4027	-9.74	58.866
715.75550	-26.886	-8.7996	-0.88345	-1.3889	-9.732	58.503
716.25550	-27.005	-8.7998	-0.88347	-1.3945	-9.7264	58.238
716.75550	-26.705	-8.7998	-0.88348	-1.3829	-9.7185	58.032
717.25550	-26.773	-8.7998	-0.88347	-1.3797	-9.7116	57.863
717.75550	-26.603	-8.7999	-0.88349	-1.3755	-9.7045	57.662
718.25550	-26.479	-8.7999	-0.88347	-1.3679	-9.6966	57.4
718.75550	-26.494	-8.7999	-0.88348	-1.3655	-9.6887	57.271
719.25550	-26.292	-8.7999	-0.8835	-1.3581	-9.6816	56.982
719.75550	-26.225	-8.7999	-0.88348	-1.3524	-9.6758	56.761
720.25550	-26.271	-8.8	-0.88349	-1.3561	-9.668	56.636
720.75550	-25.928	-8.8	-0.8835	-1.3405	-9.6606	56.422
721.25550	-25.933	-8.8	-0.8835	-1.3359	-9.6539	56.248
721.75550	-25.806	-8.8	-0.88349	-1.3329	-9.6468	56.033
722.25550	-25.56	-8.8	-0.8835	-1.3178	-9.6385	55.866
722.75550	-25.675	-8.8	-0.88349	-1.3264	-9.6317	55.665
723.25550	-25.507	-8.8	-0.88351	-1.319	-9.6245	55.45
723.75550	-25.373	-8.8	-0.8835	-1.3083	-9.6174	55.303
724.25550	-25.359	-8.8	-0.8835	-1.3099	-9.6126	55.118
724.75550	-25.084	-8.8	-0.8835	-1.2961	-9.6058	54.911
725.25550	-25.289	-8.8001	-0.88351	-1.3036	-9.5983	54.759
