Time(sec)	Force(kgf)	LGauge(mm)	Strain	Stress(MPa)	Stroke(mm)	TC1(C)
0.00000	-118.06	0.00022892	1.5007e-05	-14.77	0.08346	41.124
1.00000	-117.76	0.00014483	1.0194e-05	-14.705	0.08085	40.983
2.00000	-117.51	6.3109e-05	5.024e-06	-14.666	0.080302	40.933
3.00000	-117.47	5.2323e-05	3.3066e-06	-14.665	0.081772	40.855
4.00000	-120.02	-0.00041932	-2.8312e-05	-14.992	0.081775	40.805
5.00000	-120.07	-0.00048031	-3.116e-05	-14.995	0.083416	40.753
6.00000	-119.85	-0.00051719	-3.4211e-05	-14.968	0.081918	40.684
7.00000	-119.33	-0.0005013	-3.3007e-05	-14.896	0.081966	40.635
8.00000	-118.72	-0.0004439	-2.9791e-05	-14.825	0.083061	40.59
9.00000	-120.12	8.9738e-05	5.3797e-06	-14.999	0.085129	40.582
10.00000	-127.28	1.8875e-05	-4.7447e-07	-15.894	0.086495	41.293
11.00000	-137.17	1.3589e-05	-6.0419e-07	-17.128	0.087347	45.157
12.00000	-146.56	0.00027638	1.5451e-05	-18.295	0.089069	53.226
13.00000	-151.41	0.0006751	4.2513e-05	-18.906	0.091327	63.562
14.00000	-147.14	0.00076748	4.8922e-05	-18.38	0.08945	72.664
15.00000	-141.69	0.0010843	6.9776e-05	-17.697	0.089245	77.705
15.57920	-140.78	0.0010243	6.5616e-05	-17.578	0.08876	78.836
16.57920	-146.92	0.001006	6.5032e-05	-18.349	0.08997	79.577
16.59340	-147.08	0.0010128	6.5442e-05	-18.369	0.089984	79.595
17.59340	-156.82	0.0020701	0.00013528	-19.595	0.090418	81.787
18.59340	-161.74	0.0038614	0.0002547	-20.207	0.088583	87.665
19.59340	-165.21	0.0050354	0.00033385	-20.638	0.086786	96.004
20.59340	-163.92	0.0052103	0.00034893	-20.477	0.088654	104.22
21.59340	-160.15	0.0052435	0.00034769	-20.009	0.089226	109.55
22.59340	-162.45	0.0052808	0.0003507	-20.296	0.087988	111.94
23.59340	-168.5	0.0062994	0.00042095	-21.052	0.088986	113.68
24.59340	-170.33	0.009191	0.00061444	-21.281	0.08887	117.73
25.59340	-171.39	0.012063	0.00080501	-21.416	0.087848	124.47
26.59340	-172.6	0.013624	0.00090801	-21.571	0.08789	132.29
27.59340	-172	0.013793	0.00092231	-21.497	0.086978	138.93
28.59340	-172.61	0.013885	0.00092576	-21.578	0.086282	143
29.59340	-173.86	0.015339	0.0010236	-21.736	0.086576	145.45
30.59340	-173.9	0.018878	0.001257	-21.738	0.086856	148.54
31.59340	-174.27	0.022485	0.0014969	-21.796	0.085848	153.81
32.59340	-174.65	0.025477	0.0016967	-21.84	0.085542	160.54
33.59340	-175.72	0.027191	0.0018104	-21.978	0.085595	167.35
34.59340	-176.67	0.027724	0.0018465	-22.104	0.085285	173.27
35.59340	-177.41	0.02845	0.0018912	-22.198	0.084173	177.37
36.59340	-176.75	0.03099	0.0020615	-22.115	0.084228	180.48
37.59340	-176.64	0.034374	0.0022858	-22.094	0.083613	184.2
38.59340	-176.79	0.037913	0.0025211	-22.135	0.082484	189.5
39.59340	-177.01	0.040955	0.0027243	-22.162	0.082219	195.67
40.59340	-177.79	0.042733	0.0028429	-22.266	0.081499	201.96
41.59340	-178.38	0.044002	0.0029279	-22.343	0.081832	207.32
42.59340	-178.35	0.045704	0.0030405	-22.339	0.085508	211.81
43.59340	-178.01	0.048207	0.003207	-22.296	0.084444	215.73
44.59340	-177.82	0.051541	0.0034312	-22.279	0.083724	219.84
45.59340	-177.42	0.055145	0.0036694	-22.24	0.084549	224.88
46.59340	-177.49	0.058168	0.0038714	-22.253	0.083926	230.74
47.59340	-178.21	0.060351	0.0040138	-22.344	0.084052	236.72
48.59340	-178.27	0.062429	0.0041532	-22.357	0.083488	241.89
49.59340	-178.29	0.064607	0.0042999	-22.354	0.083537	246.46
50.59340	-178.2	0.067378	0.0044844	-22.351	0.084009	250.71
51.59340	-177.78	0.070716	0.0047043	-22.307	0.082821	255.18
52.59340	-177.8	0.074016	0.0049228	-22.308	0.082546	260.3
53.59340	-178.02	0.07669	0.0051009	-22.347	0.082789	265.84
54.59340	-178.17	0.079098	0.0052605	-22.365	0.08297	271.3
55.59340	-178.45	0.081331	0.005408	-22.401	0.082379	276.46
56.49840	-178.48	0.083706	0.0055631	-22.409	0.083043	280.8
57.49840	-178.2	0.08666	0.0057604	-22.384	0.08207	285.27
58.49840	-178.25	0.089866	0.0059739	-22.391	0.08201	289.97
59.49840	-178.23	0.093181	0.0061928	-22.396	0.081227	295.1
60.49840	-178.31	0.09632	0.0063999	-22.407	0.08195	300.46
60.94310	-178.21	0.09762	0.0064868	-22.395	0.080861	302.86
61.94310	-178.56	0.10027	0.0066613	-22.452	0.080541	308.36
62.94310	-178.55	0.1027	0.0068213	-22.457	0.080579	313.53
63.94310	-178.71	0.10511	0.0069817	-22.471	0.080684	318.08
64.94310	-178.76	0.10798	0.0071718	-22.475	0.081392	322.68
65.94310	-178.44	0.111	0.0073712	-22.445	0.080431	327.32
66.94310	-178.34	0.11441	0.0075976	-22.438	0.080643	332.25
67.94310	-178.5	0.11755	0.007805	-22.463	0.080036	337.68
68.94310	-178.64	0.12038	0.0079908	-22.495	0.080246	343.17
69.94310	-178.92	0.12274	0.0081485	-22.524	0.080861	348.56
70.94310	-178.96	0.12512	0.0083065	-22.529	0.080368	353.32
71.94310	-179.12	0.12782	0.0084854	-22.55	0.0803	357.79
72.94310	-178.76	0.13095	0.008691	-22.521	0.079572	362.31
73.94310	-178.78	0.13441	0.0089215	-22.526	0.080452	366.95
74.94310	-179	0.13768	0.0091406	-22.557	0.079952	372.12
75.94310	-178.91	0.14089	0.0093532	-22.555	0.080805	377.63
76.94310	-179.1	0.14335	0.0095127	-22.573	0.080861	383.22
77.94310	-179.33	0.14541	0.0096474	-22.607	0.079955	388.43
78.94310	-179.61	0.14784	0.0098101	-22.648	0.080161	393.12
79.94310	-179.33	0.15105	0.010021	-22.621	0.079193	397.4
80.94310	-179.23	0.15454	0.010252	-22.61	0.079536	401.89
81.94310	-179.4	0.15816	0.010489	-22.642	0.079544	407.05
82.94310	-179.27	0.16146	0.010707	-22.619	0.079808	412.72
83.94310	-179.46	0.16399	0.010875	-22.65	0.079217	418.39
84.94310	-179.79	0.16601	0.011006	-22.703	0.079311	423.5
85.94310	-179.83	0.16877	0.011189	-22.71	0.079674	428.1
86.94310	-179.71	0.17189	0.011395	-22.698	0.08003	432.57
87.94310	-179.92	0.17473	0.011581	-22.734	0.079239	437
88.94310	-179.91	0.17809	0.011802	-22.728	0.079259	441.61
89.94310	-179.91	0.18179	0.012045	-22.731	0.079998	446.66
90.94310	-179.83	0.18569	0.012301	-22.732	0.079542	451.9
91.94310	-179.92	0.18924	0.012536	-22.75	0.078901	457.47
92.94310	-180.26	0.19221	0.012732	-22.797	0.07991	463.29
93.94310	-180.4	0.19484	0.012902	-22.827	0.079805	468.61
94.94310	-180.6	0.19735	0.01307	-22.844	0.079921	473.5
95.94310	-180.82	0.20006	0.013249	-22.872	0.078635	477.8
96.94310	-180.52	0.20343	0.013471	-22.843	0.08028	482.09
97.45740	-180.69	0.20533	0.013597	-22.869	0.079812	484.57
98.45740	-180.59	0.20894	0.013832	-22.857	0.079637	489.49
99.45740	-180.43	0.2127	0.01408	-22.85	0.08016	494.98
100.08590	-180.32	0.21506	0.014236	-22.839	0.079148	498.62
101.08590	-180.42	0.21773	0.014414	-22.853	0.079709	504.68
102.08590	-180.84	0.21952	0.014531	-22.905	0.07894	510.26
103.08590	-181.3	0.22114	0.014634	-22.971	0.080692	515.15
104.08590	-181.02	0.22337	0.014782	-22.941	0.079901	519.22
105.08590	-181.06	0.22612	0.014964	-22.945	0.079538	523.09
106.08590	-180.86	0.23001	0.01522	-22.937	0.080668	527.39
107.08590	-180.7	0.23395	0.015477	-22.92	0.079825	532.37
108.08590	-180.96	0.23728	0.015695	-22.945	0.080146	538.19
109.08590	-180.91	0.24013	0.015883	-22.95	0.080628	544.02
110.08590	-181.06	0.24239	0.01603	-22.972	0.079756	549.46
111.08590	-181.39	0.24411	0.016144	-23.02	0.080074	554.39
112.08590	-181.53	0.24638	0.016291	-23.041	0.080569	558.81
113.08590	-181.33	0.24954	0.016498	-23.021	0.079806	563.12
114.08590	-181.28	0.25301	0.016727	-23.018	0.080014	567.65
115.08590	-181.47	0.2566	0.01696	-23.043	0.079864	572.68
116.08590	-181.18	0.26026	0.017199	-23.012	0.081227	578.06
117.08590	-181.25	0.26332	0.017401	-23.032	0.079851	583.59
118.08590	-181.45	0.26584	0.017567	-23.065	0.080021	589.12
119.08590	-181.85	0.26816	0.017717	-23.114	0.07949	594.13
120.08590	-181.78	0.27098	0.017902	-23.111	0.080196	598.76
121.08590	-181.78	0.27375	0.018086	-23.113	0.078553	603.44
122.08590	-181.88	0.27661	0.018272	-23.126	0.079882	608.11
123.08590	-181.77	0.2799	0.018489	-23.121	0.079559	613.07
124.08590	-181.88	0.28315	0.0187	-23.142	0.080474	618.27
125.08590	-182.01	0.28591	0.01888	-23.158	0.079188	623.4
126.08590	-182.1	0.28884	0.019074	-23.176	0.079023	628.46
127.08590	-182.1	0.29199	0.019281	-23.173	0.079395	633.48
128.08590	-182.07	0.29469	0.019458	-23.178	0.079239	638.41
129.08590	-182.17	0.29744	0.019635	-23.197	0.079474	643.26
130.08590	-182.06	0.30052	0.019837	-23.19	0.079191	648.19
131.08590	-182.23	0.30356	0.02004	-23.22	0.078794	653.11
132.08590	-182.29	0.30652	0.020232	-23.222	0.079071	658.08
133.08590	-182.16	0.30973	0.020438	-23.213	0.079224	663.21
134.08590	-182.12	0.31234	0.020612	-23.211	0.079453	668.27
135.08590	-182.22	0.31522	0.020796	-23.232	0.079577	673.38
136.08590	-182.4	0.31822	0.020992	-23.262	0.079316	678.6
137.08590	-182.47	0.32062	0.021152	-23.273	0.079208	683.58
138.08590	-182.73	0.32299	0.021303	-23.308	0.078636	688.51
138.38730	-182.62	0.32384	0.021359	-23.298	0.079102	690.22
139.38730	-182.71	0.32683	0.021553	-23.314	0.078906	695.09
139.41390	-182.66	0.3269	0.021558	-23.306	0.078615	695.22
140.41390	-182.82	0.32931	0.021717	-23.327	0.079648	700.25
141.41390	-182.82	0.33193	0.021883	-23.331	0.079753	705.11
142.41390	-182.8	0.33487	0.022077	-23.33	0.079867	709.9
143.41390	-182.75	0.33737	0.022241	-23.331	0.080052	714.92
144.41390	-182.98	0.33968	0.02239	-23.371	0.079132	720
145.41390	-183.31	0.34189	0.022534	-23.413	0.079485	725.09
146.41390	-183.53	0.34359	0.022647	-23.443	0.080245	730.21
147.41390	-183.66	0.34526	0.022755	-23.461	0.0786	735.1
148.41390	-183.87	0.34682	0.02286	-23.489	0.079466	740.06
149.41390	-181.59	0.34736	0.022894	-23.2	0.080015	744.86
150.41390	-169.67	0.3478	0.02292	-21.681	0.080073	748.79
151.41390	-155.86	0.34825	0.022952	-19.919	0.079656	749.46
152.41390	-151.54	0.34836	0.02296	-19.363	0.079751	748.24
153.41390	-162.08	0.34892	0.022998	-20.708	0.080195	749.08
154.41390	-180.51	0.35271	0.023242	-23.064	0.080465	754.83
155.41390	-179.04	0.36219	0.023862	-22.895	0.080873	783.21
156.41390	-149.13	0.35717	0.023534	-19.069	0.079322	803.78
157.41390	-140	0.3476	0.022911	-17.889	0.080021	805.86
158.41390	-137.68	0.33872	0.022332	-17.576	0.080264	800.91
159.41390	-139.2	0.33677	0.022203	-17.775	0.080566	796.47
160.41390	-139.26	0.33786	0.022275	-17.775	0.080365	797.49
161.41390	-102.69	0.34524	0.022753	-13.113	0.081458	801.81
162.41390	-102.47	0.35065	0.023109	-13.097	0.082866	807.42
163.41390	-103.18	0.3551	0.023399	-13.191	0.08249	813.11
164.41390	-103.72	0.35918	0.023662	-13.269	0.082281	818.66
165.41390	-103.96	0.36322	0.023924	-13.295	0.081608	823.8
166.41390	-103.99	0.36762	0.024212	-13.302	0.082339	828.75
167.41390	-103.96	0.37184	0.024486	-13.302	0.081168	833.78
168.41390	-104.1	0.37624	0.024772	-13.328	0.081884	838.72
169.41390	-104.14	0.38058	0.025053	-13.339	0.083106	843.67
170.41390	-104.3	0.38519	0.025354	-13.358	0.083276	848.85
171.41390	-104.31	0.38958	0.02564	-13.362	0.082497	854.18
172.41390	-104.49	0.39397	0.025924	-13.389	0.081813	859.41
173.41390	-104.56	0.39824	0.026202	-13.406	0.081965	864.65
174.41390	-104.6	0.40263	0.026489	-13.412	0.082654	869.74
175.41390	-104.71	0.40671	0.026753	-13.436	0.083328	874.91
176.41390	-104.93	0.41066	0.027011	-13.461	0.082422	879.89
177.41390	-104.93	0.41442	0.027257	-13.462	0.083665	885
178.41390	-104.99	0.41853	0.027524	-13.472	0.084108	889.97
179.35180	-105.06	0.42247	0.027776	-13.492	0.083875	894.84
180.35180	-105.16	0.42655	0.028039	-13.512	0.084202	900.03
181.35180	-105.38	0.43042	0.028292	-13.532	0.083551	905.14
182.35180	-105.31	0.43402	0.028527	-13.529	0.083318	910.23
183.35180	-105.34	0.43746	0.028749	-13.536	0.082921	915.21
184.35180	-105.34	0.44092	0.028973	-13.536	0.083131	920.14
184.79690	-105.5	0.44239	0.029068	-13.555	0.083202	922.31
185.79690	-105.41	0.44596	0.029297	-13.55	0.083606	927.34
186.79690	-105.34	0.4495	0.029525	-13.551	0.083218	932.28
187.79690	-105.47	0.45315	0.029763	-13.57	0.083614	937.23
188.79690	-105.6	0.45638	0.029974	-13.585	0.083176	942.4
189.79690	-105.67	0.45962	0.030182	-13.596	0.084704	947.32
190.79690	-105.48	0.46292	0.030393	-13.578	0.08357	952.36
191.79690	-105.52	0.46649	0.030624	-13.586	0.084051	957.3
192.79690	-105.42	0.46985	0.030842	-13.58	0.083276	962.3
193.79690	-105.46	0.47288	0.031038	-13.586	0.084113	967.32
194.79690	-105.59	0.47602	0.03124	-13.607	0.084612	972.34
195.79690	-105.54	0.47938	0.031455	-13.604	0.08374	977.06
196.79690	-105.33	0.48297	0.031689	-13.572	0.084227	982.09
197.79690	-105.17	0.48615	0.031895	-13.557	0.084084	987.22
198.79690	-105.17	0.48896	0.032079	-13.559	0.084055	992.39
199.79690	-105.29	0.49176	0.032259	-13.584	0.0835	997.26
200.79690	-105.34	0.4949	0.032458	-13.589	0.085087	1002.4
201.79690	-105.24	0.49756	0.032633	-13.576	0.084235	1007.8
202.79690	-105.39	0.49886	0.032719	-13.591	0.085684	1013.3
203.79690	-105.65	0.50003	0.032793	-13.636	0.085284	1018.1
204.79690	-105.26	0.50209	0.032926	-13.586	0.085639	1022.2
205.79690	-105.16	0.5042	0.033061	-13.574	0.085048	1026.7
206.79690	-105.15	0.5064	0.033203	-13.576	0.085272	1031.5
207.79690	-104.85	0.50888	0.033363	-13.532	0.085882	1036.7
208.79690	-104.52	0.51104	0.033504	-13.498	0.084914	1042.3
209.79690	-104.6	0.5122	0.033579	-13.503	0.086021	1047.4
210.79690	-104.93	0.51316	0.033639	-13.551	0.085284	1052.3
211.79690	-104.81	0.51436	0.033715	-13.541	0.086338	1057.3
212.79690	-104.77	0.5147	0.033739	-13.535	0.086678	1062.7
213.79690	-103.77	0.51489	0.03375	-13.401	0.086299	1067.7
214.79690	-102.21	0.51528	0.033775	-13.197	0.085679	1072.7
215.79690	-100.45	0.51544	0.033785	-12.973	0.08639	1078.1
216.79690	-97.091	0.51518	0.033769	-12.543	0.086686	1082.9
217.79690	-94.834	0.51522	0.033771	-12.255	0.087199	1087.6
218.79690	-92.928	0.51535	0.033777	-12.005	0.085762	1092.4
219.79690	-91.249	0.51522	0.033772	-11.782	0.0864	1097.1
220.29350	-90.4	0.51504	0.03376	-11.678	0.086329	1099.7
221.29350	-88.539	0.5148	0.033742	-11.437	0.087139	1104.7
222.29350	-86.845	0.51477	0.03374	-11.222	0.087275	1109.5
223.29350	-85.586	0.5148	0.033741	-11.056	0.086856	1114.4
223.92340	-84.711	0.51479	0.033742	-10.946	0.086883	1117.6
224.92340	-83.572	0.51454	0.033729	-10.792	0.086745	1122.5
225.92340	-82.61	0.51428	0.033713	-10.664	0.086865	1127.5
226.92340	-81.495	0.5141	0.033698	-10.522	0.087888	1132.5
227.92340	-80.453	0.51403	0.033694	-10.392	0.088128	1137.5
228.92340	-79.498	0.51405	0.033696	-10.271	0.088386	1142.4
229.92340	-78.781	0.51405	0.033697	-10.176	0.088148	1147.3
230.92340	-78.499	0.51401	0.033695	-10.139	0.088107	1152.2
231.92340	-77.984	0.51389	0.033689	-10.072	0.088495	1157.1
232.92340	-77.773	0.51374	0.03368	-10.039	0.087949	1161.9
233.92340	-77.727	0.51372	0.033677	-10.036	0.088251	1166.7
234.92340	-77.976	0.51374	0.033677	-10.074	0.088311	1171.3
235.92340	-78.825	0.51382	0.033681	-10.179	0.08872	1175.9
236.92340	-78.952	0.51397	0.03369	-10.195	0.089816	1180.8
237.92340	-78.931	0.5141	0.033698	-10.191	0.088737	1185.7
238.92340	-78.828	0.51417	0.033704	-10.181	0.08974	1191.1
239.92340	-78.312	0.51412	0.033703	-10.116	0.090041	1196.5
240.92340	-75.704	0.51358	0.033668	-9.7827	0.089715	1201.3
241.92340	-72.097	0.51179	0.033553	-9.3092	0.089446	1203.1
242.92340	-68.611	0.51007	0.033439	-8.8571	0.090351	1203.1
243.92340	-66.695	0.50839	0.03333	-8.6075	0.090471	1202.5
244.92340	-65.756	0.50685	0.03323	-8.4907	0.091239	1201.9
245.92340	-65.13	0.50549	0.033142	-8.4104	0.090423	1201.5
246.92340	-64.512	0.50414	0.033054	-8.3306	0.090888	1201.2
247.92340	-63.816	0.50258	0.032953	-8.2361	0.09053	1201.1
248.92340	-63.26	0.50126	0.032867	-8.1623	0.090811	1200.7
249.92340	-62.708	0.49992	0.032783	-8.0949	0.090646	1200.7
250.92340	-62.291	0.4985	0.032692	-8.0374	0.090979	1200.4
251.92340	-62.048	0.49695	0.032591	-8.0025	0.090628	1200.2
252.92340	-61.644	0.49565	0.032505	-7.9519	0.091038	1200.1
253.92340	-61.227	0.49437	0.032425	-7.897	0.090977	1200.2
254.92340	-60.983	0.49309	0.032343	-7.8704	0.092451	1200.2
255.92340	-60.783	0.49196	0.032271	-7.8414	0.091246	1200.2
256.92340	-60.624	0.49065	0.032184	-7.8198	0.091906	1200.1
257.92340	-60.398	0.48925	0.032095	-7.7847	0.091629	1200
258.92340	-60.127	0.48774	0.031999	-7.7531	0.092176	1200.2
259.92340	-59.838	0.4864	0.031913	-7.7219	0.091101	1200.2
260.92340	-59.786	0.48507	0.031826	-7.7135	0.092581	1200.3
261.24250	-59.773	0.48461	0.031797	-7.7101	0.091607	1200.2
262.24250	-59.737	0.48349	0.031725	-7.7052	0.092285	1200.3
263.06920	-59.718	0.48259	0.031668	-7.6931	0.092053	1200.4
264.06920	-59.58	0.48129	0.031582	-7.673	0.09166	1200.5
265.06920	-59.228	0.48022	0.031515	-7.6298	0.092668	1200.9
266.06920	-59.329	0.47902	0.031439	-7.6499	0.091164	1201.1
267.06920	-59.297	0.47802	0.031373	-7.6426	0.092624	1201.1
268.06920	-59.354	0.47716	0.031315	-7.6436	0.092717	1201.1
269.06920	-59.229	0.47625	0.031255	-7.6294	0.092376	1201
270.06920	-59.376	0.47533	0.031195	-7.6493	0.092451	1200.8
271.06920	-59.263	0.47454	0.031142	-7.6408	0.092952	1200.7
272.06920	-59.409	0.47377	0.031093	-7.6577	0.092789	1200.6
273.06920	-59.769	0.47283	0.031032	-7.6969	0.092309	1200.5
274.06920	-59.328	0.47253	0.031015	-7.6403	0.092137	1200.6
275.06920	-58.759	0.47271	0.031028	-7.569	0.092771	1200.6
276.06920	-59.524	0.4724	0.031009	-7.6707	0.092794	1200.7
277.06920	-59.556	0.47203	0.030989	-7.6703	0.0927	1200.6
278.06920	-59.957	0.47147	0.030946	-7.7178	0.092453	1200.5
279.06920	-59.307	0.47112	0.030922	-7.6404	0.092114	1200.3
280.06920	-58.887	0.47093	0.030911	-7.5888	0.092805	1200.1
281.06920	-59.819	0.47008	0.030861	-7.7057	0.093248	1200
282.06920	-59.914	0.46922	0.030804	-7.7152	0.093109	1199.9
283.06920	-60.16	0.46841	0.030753	-7.7441	0.092412	1199.9
284.06920	-60.121	0.46775	0.030709	-7.7425	0.092612	1199.9
285.06920	-60.175	0.46643	0.030621	-7.7519	0.092895	1199.7
286.06920	-60.758	0.46497	0.030526	-7.8212	0.092205	1199.6
287.06920	-60.218	0.46411	0.030473	-7.7483	0.092862	1199.5
288.06920	-60.382	0.46308	0.030407	-7.7675	0.092603	1199.2
289.06920	-60.102	0.4629	0.030398	-7.7391	0.092063	1198.9
290.06920	-59.909	0.46297	0.0304	-7.7148	0.091795	1198.9
291.06920	-59.702	0.46294	0.030396	-7.6833	0.091258	1199.1
292.06920	-59.495	0.4628	0.030385	-7.6556	0.091806	1199.4
293.06920	-59.908	0.46215	0.030341	-7.7079	0.092314	1199.7
294.06920	-60.858	0.46055	0.03024	-7.8364	0.09307	1199.9
295.06920	-60.912	0.45967	0.030185	-7.8394	0.092445	1200
296.06920	-60.91	0.45874	0.030126	-7.8357	0.092189	1200
297.06920	-60.904	0.45779	0.030065	-7.8367	0.092088	1199.9
298.06920	-60.591	0.45728	0.030028	-7.7999	0.093243	1199.9
299.06920	-59.658	0.45698	0.030007	-7.6814	0.094271	1200.1
300.06920	-60.615	0.45542	0.029904	-7.796	0.093871	1199.9
301.06920	-60.407	0.45474	0.029863	-7.7697	0.093474	1200
302.06920	-59.652	0.45438	0.02984	-7.674	0.092923	1200.2
302.18230	-59.704	0.45442	0.029844	-7.6799	0.092699	1200.2
303.18230	-58.91	0.45389	0.029811	-7.5788	0.093122	1200.2
303.21050	-58.95	0.45381	0.029806	-7.5834	0.092962	1200.1
304.21050	-60.45	0.4517	0.02967	-7.7751	0.093498	1199.9
305.21050	-59.681	0.45113	0.029634	-7.6806	0.094377	1199.9
306.21050	-59.691	0.45037	0.029586	-7.6754	0.093819	1200
307.21050	-59.156	0.44973	0.029544	-7.6081	0.093319	1200
308.21050	-58.163	0.44947	0.029523	-7.4834	0.093465	1200
309.21050	-59.346	0.44821	0.029443	-7.6368	0.094637	1200
310.21050	-58.691	0.44783	0.02942	-7.5532	0.094225	1200
311.21050	-58.057	0.44767	0.029408	-7.4602	0.093665	1200
312.21050	-58.151	0.44722	0.029376	-7.4777	0.093145	1199.9
313.21050	-57.942	0.44727	0.029381	-7.4551	0.09284	1199.8
314.21050	-58.21	0.44729	0.029382	-7.489	0.09234	1200
315.21050	-58.007	0.4474	0.029389	-7.4594	0.093067	1200.1
316.21050	-58.409	0.44751	0.029398	-7.5088	0.091173	1200.3
317.21050	-57.989	0.44746	0.029395	-7.458	0.090561	1200.3
318.21050	-57.648	0.44743	0.029396	-7.416	0.091853	1200.2
319.21050	-59.229	0.44744	0.029394	-7.6172	0.091735	1200.2
320.21050	-60.288	0.44746	0.029394	-7.7497	0.090889	1200.1
321.21050	-60.682	0.44779	0.029411	-7.8049	0.090353	1200
322.21050	-60.94	0.44823	0.029443	-7.8367	0.091053	1199.8
323.21050	-60.775	0.44815	0.02944	-7.8099	0.090546	1199.9
324.21050	-60.355	0.44822	0.029442	-7.7636	0.0896	1199.8
325.21050	-59.901	0.44859	0.029465	-7.7108	0.089773	1199.9
326.21050	-60.089	0.44867	0.029473	-7.7333	0.089876	1199.9
327.21050	-60	0.44839	0.029454	-7.7163	0.089006	1200.1
328.21050	-59.601	0.44866	0.02947	-7.6645	0.089964	1200.4
329.21050	-58.808	0.44877	0.02948	-7.5611	0.092395	1200.6
330.21050	-59.088	0.44843	0.029457	-7.6035	0.094403	1200.6
331.21050	-58.812	0.44869	0.029472	-7.5671	0.093985	1200.6
332.21050	-58.549	0.44885	0.029488	-7.5333	0.093453	1200.6
333.21050	-58.664	0.44856	0.029469	-7.5414	0.092568	1200.6
334.21050	-58.674	0.44865	0.029471	-7.5472	0.092635	1200.6
335.21050	-58.845	0.44915	0.029503	-7.5665	0.091804	1200.5
336.21050	-58.682	0.44909	0.029506	-7.5475	0.090435	1200.2
337.21050	-58.931	0.44897	0.029494	-7.5835	0.089768	1200.2
338.21050	-60.198	0.44914	0.029501	-7.7466	0.091968	1200
339.21050	-60.358	0.44924	0.02951	-7.7632	0.092493	1200
340.21050	-59.719	0.44887	0.02949	-7.6765	0.093202	1200.1
341.21050	-58.976	0.44886	0.029484	-7.5816	0.093199	1200.2
342.21050	-60.499	0.44863	0.02947	-7.7802	0.092902	1200.2
343.21050	-60.373	0.44774	0.029416	-7.7619	0.091367	1200.4
343.21740	-60.355	0.44774	0.029415	-7.7595	0.091378	1200.4
344.21740	-60.703	0.44664	0.029341	-7.8056	0.092365	1200.5
345.21740	-60.988	0.44577	0.029281	-7.8389	0.091849	1200.5
346.21740	-60.706	0.44489	0.029229	-7.805	0.090601	1200.3
347.21740	-60.857	0.4434	0.029133	-7.8223	0.091065	1200.2
348.21740	-60.793	0.4425	0.02907	-7.8205	0.089603	1200.2
349.21740	-60.609	0.44211	0.029044	-7.7952	0.090202	1200.1
350.21740	-60.581	0.44136	0.028999	-7.7878	0.088569	1200
351.21740	-59.93	0.44053	0.028945	-7.6962	0.090521	1200
352.21740	-60.81	0.43938	0.028869	-7.8189	0.08953	1199.8
353.21740	-60.776	0.43889	0.028836	-7.8152	0.088888	1199.7
354.21740	-60.478	0.4381	0.028791	-7.7792	0.093295	1199.8
355.21740	-61.151	0.43646	0.028683	-7.8623	0.094281	1199.8
356.21740	-61.387	0.4351	0.028592	-7.8859	0.094365	1199.8
357.21740	-61.29	0.43393	0.028519	-7.8738	0.09438	1199.7
358.21740	-61.375	0.43257	0.028437	-7.8866	0.093518	1199.7
359.21740	-61.296	0.43113	0.028337	-7.8767	0.093028	1199.7
360.21740	-61.542	0.42973	0.028243	-7.9098	0.091476	1199.8
361.21740	-61.658	0.42861	0.028175	-7.9193	0.092109	1199.7
362.21740	-61.589	0.42718	0.028086	-7.9066	0.092173	1199.8
363.21740	-61.875	0.4254	0.027968	-7.9414	0.094522	1199.7
364.21740	-61.672	0.42434	0.027895	-7.9215	0.094681	1199.8
365.21740	-61.708	0.42362	0.027849	-7.9289	0.094916	1199.8
366.21740	-61.447	0.42253	0.027783	-7.8899	0.095295	1199.9
367.21740	-61.803	0.42148	0.027713	-7.9252	0.094567	1200.1
368.21740	-61.242	0.42089	0.027671	-7.8603	0.093957	1200.1
369.21740	-61.467	0.42021	0.027628	-7.8822	0.093721	1199.9
370.21740	-60.466	0.41958	0.027591	-7.7607	0.092998	1200
371.21740	-61.364	0.41841	0.027512	-7.8771	0.092806	1199.9
372.21740	-61.389	0.4183	0.027503	-7.8802	0.091739	1199.8
373.21740	-61.331	0.41843	0.027512	-7.8713	0.091135	1199.7
374.21740	-61.72	0.41803	0.02749	-7.9196	0.091238	1199.6
375.21740	-62.058	0.41787	0.027474	-7.9677	0.091097	1199.6
376.21740	-62.64	0.4181	0.027488	-8.0423	0.091659	1199.4
377.21740	-64.337	0.41829	0.027503	-8.2636	0.094481	1199.6
378.21740	-65.305	0.41804	0.027491	-8.3827	0.09532	1199.9
379.21740	-65.569	0.41784	0.027474	-8.4099	0.096169	1200
380.21740	-65.686	0.41785	0.027473	-8.4286	0.095529	1200.1
381.21740	-66.046	0.41823	0.027498	-8.4824	0.096675	1200.3
382.21740	-65.916	0.41829	0.027504	-8.4677	0.095225	1200.4
383.21740	-66.368	0.41819	0.0275	-8.5211	0.093899	1200.5
384.08520	-66.177	0.41799	0.027492	-8.4924	0.093807	1200.5
385.08520	-65.935	0.4179	0.027481	-8.464	0.09424	1200.4
386.08520	-66.119	0.4179	0.027479	-8.486	0.095694	1200
386.91630	-66.567	0.41805	0.027489	-8.5437	0.096287	1199.7
387.91630	-66.709	0.41818	0.027497	-8.5617	0.097155	1199.7
388.91630	-66.545	0.41832	0.027506	-8.5367	0.095405	1199.7
389.91630	-66.781	0.41848	0.027514	-8.5733	0.096378	1199.7
390.91630	-66.681	0.41852	0.027518	-8.5604	0.095923	1199.7
391.91630	-66.614	0.4186	0.027523	-8.5495	0.095121	1199.8
392.91630	-65.9	0.41862	0.027525	-8.4563	0.09541	1199.8
393.91630	-65.22	0.41868	0.027529	-8.3729	0.095372	1199.8
394.91630	-63.895	0.41864	0.027526	-8.2025	0.094481	1199.9
395.91630	-63.525	0.41835	0.027507	-8.1615	0.093527	1200
396.91630	-63.324	0.41802	0.027485	-8.1281	0.093671	1200
397.91630	-63.021	0.41779	0.027471	-8.084	0.094812	1199.9
398.91630	-62.482	0.41782	0.027475	-8.0166	0.096228	1200
399.91630	-61.869	0.41794	0.027484	-7.9448	0.096361	1200.1
400.91630	-61.958	0.41793	0.027481	-7.9602	0.096087	1200.1
401.91630	-61.537	0.4178	0.02747	-7.9007	0.095874	1200.3
402.91630	-60.973	0.41739	0.027442	-7.8237	0.095421	1200.3
403.91630	-60.167	0.41683	0.027407	-7.7243	0.095393	1200.4
404.91630	-60.099	0.41622	0.027369	-7.7141	0.095619	1200.2
405.91630	-59.815	0.41633	0.027379	-7.677	0.095692	1200.2
406.91630	-59.947	0.41647	0.027385	-7.6966	0.095048	1200.2
407.91630	-59.483	0.41618	0.027364	-7.6354	0.096173	1200.2
408.91630	-59.092	0.41582	0.027346	-7.5818	0.095984	1200.2
409.91630	-59.293	0.41604	0.027366	-7.6069	0.096283	1200.3
410.91630	-60.811	0.41538	0.027315	-7.8052	0.096413	1200.4
411.91630	-60.868	0.41477	0.027274	-7.8092	0.096829	1200.4
412.91630	-60.408	0.41492	0.02729	-7.7551	0.097187	1200.2
413.91630	-60.475	0.41545	0.027326	-7.7638	0.096226	1200.2
414.91630	-60.718	0.41553	0.027323	-7.795	0.095632	1200.2
415.91630	-60.886	0.41542	0.02732	-7.8132	0.095449	1200.1
416.91630	-61.045	0.41562	0.027336	-7.8321	0.095533	1200
417.91630	-61.569	0.41602	0.027357	-7.9033	0.095799	1200
418.91630	-62.009	0.4157	0.027335	-7.96	0.095576	1200
419.91630	-62.225	0.41559	0.02733	-7.9846	0.094994	1200
420.91630	-61.529	0.024098	0.0015895	-7.6928	0.084437	1200.1
421.10000	-58.428	0.0014883	0.00013554	-7.2461	0.093856	1200
421.10050	-60.474	-0.00062827	-5.0973e-06	-7.4997	0.093806	1200
421.10100	-60.726	-3.4091e-05	-4.2725e-05	-7.595	0.092872	1200
421.10150	-60.314	0.0002418	-4.8293e-05	-7.5521	0.094002	1200.1
421.10200	-60.921	-0.00065541	-4.0164e-05	-7.6253	0.091794	1200.1
421.10250	-60.392	-0.00059386	-3.189e-05	-7.533	0.096599	1200.1
421.10300	-60.99	-0.0011908	-2.7451e-05	-7.5985	0.095683	1200.2
421.10350	-60.168	-0.0014177	-8.5206e-05	-7.4853	0.092117	1200.2
421.10400	-60.475	-0.0014741	-0.00012042	-7.6017	0.095478	1200.3
421.10450	-59.916	-0.0015486	-0.0001118	-7.4712	0.092395	1200.3
421.10500	-60.098	-0.0017228	-9.1277e-05	-7.4746	0.09305	1200.4
421.10550	-61.108	-0.0016059	-8.5261e-05	-7.6515	0.089429	1200.4
421.10600	-57.179	-0.0013482	-4.6251e-05	-7.2247	0.081915	1200.4
421.10650	-63.752	-0.0017343	-9.9772e-05	-7.9038	0.073774	1200.5
421.10700	-44.195	-0.0016141	-0.0001182	-5.9581	0.064315	1200.5
421.10750	-60.412	0.00036553	-3.2035e-05	-7.6208	0.051704	1200.6
421.10800	-58.355	0.0045365	0.00025873	-7.1528	0.028877	1200.6
421.10850	-69.765	0.0077046	0.0005052	-8.7258	0.0051742	1200.7
421.10900	-63.236	0.0077503	0.00055372	-7.8281	-0.020958	1200.7
421.10950	-68.117	0.0044569	0.00031791	-8.5903	-0.057777	1200.8
421.11000	-62.365	0.0022231	0.00017318	-7.8099	-0.094787	1200.8
421.11050	-63.918	0.0011975	6.7028e-05	-8.0287	-0.14608	1200.9
421.11100	-59.345	0.0013641	8.9477e-05	-7.37	-0.19328	1200.9
421.11150	-68.985	0.001414	0.00010013	-8.634	-0.24548	1201
421.11200	-55.571	0.00082443	6.9392e-05	-7.1294	-0.30371	1201
421.11250	-65.614	0.00035026	2.8972e-05	-7.9835	-0.36025	1201.1
421.11300	-57.32	-7.5548e-05	-2.8664e-05	-7.3383	-0.42511	1201.1
421.11350	-67.712	-0.00097631	-7.3058e-05	-8.3004	-0.49293	1201.2
421.11400	-59.107	-0.0010492	-8.2577e-05	-7.5018	-0.56631	1201.2
421.11450	-59.365	-0.00075273	-5.4987e-05	-7.396	-0.64283	1201.3
421.11500	-60.158	-0.00064069	-4.7426e-05	-7.4432	-0.71597	1201.4
421.11550	-65.224	-0.001222	-5.1542e-05	-8.0784	-0.79313	1201.4
421.11600	-62.475	-0.0014734	-0.00012455	-7.7852	-0.87005	1201.5
421.11650	-58.423	-0.0014173	-0.00012449	-7.4811	-0.95487	1201.5
421.11700	-68.636	-0.0016738	-0.00011179	-7.9501	-1.0429	1201.6
421.11750	-70.195	0.00069645	-1.0203e-05	-8.7371	-1.1177	1201.6
421.11800	-63.784	0.0046358	0.00027251	-7.9844	-1.1969	1201.7
421.11850	-56.44	0.007747	0.00050838	-7.1958	-1.2849	1201.8
421.11900	-48.766	0.0068597	0.00048924	-6.1056	-1.3709	1201.8
421.11950	-61.291	0.0035417	0.00028815	-7.403	-1.4455	1201.9
421.12000	-65.594	0.0010288	7.5799e-05	-8.2519	-1.5135	1201.9
421.12050	-55.537	-0.0006507	1.0183e-06	-7.0394	-1.5968	1202
421.12100	-54.58	-0.00096589	-3.7581e-05	-6.8031	-1.6792	1202.1
421.12150	-60.282	-0.00031508	-4.4322e-05	-7.3622	-1.7447	1202.1
421.12200	-70.277	-0.00060099	-4.8635e-05	-8.834	-1.8082	1202.2
421.12250	-64.85	-0.0010199	-7.521e-05	-7.7878	-1.8781	1202.3
421.12300	-123.92	-0.003118	-0.00017126	-14.166	-1.9449	1202.4
421.12350	-246.76	-0.0084054	-0.00048553	-28.496	-1.9806	1202.6
421.12400	-401.49	-0.020578	-0.0012252	-48.945	-2.0215	1202.7
421.12450	-339.51	-0.042102	-0.0026182	-42.279	-2.0711	1202.8
421.12500	-429.47	-0.077506	-0.0048855	-52.734	-2.1382	1202.9
421.12550	-435.02	-0.12784	-0.0081249	-53.611	-2.2101	1203
421.12600	-444.72	-0.18497	-0.011984	-55.522	-2.2688	1203.2
421.12650	-437.22	-0.24141	-0.01582	-52.875	-2.323	1203.3
421.12700	-439.02	-0.29182	-0.019274	-54.4	-2.373	1203.4
421.12750	-463.35	-0.33251	-0.022169	-56.607	-2.4154	1203.5
421.12800	-493.66	-0.36782	-0.024569	-59.921	-2.4579	1203.7
421.12850	-516.06	-0.40412	-0.027007	-62.227	-2.5058	1203.8
421.12900	-537.22	-0.4501	-0.030087	-64.883	-2.5635	1203.9
421.12950	-536.8	-0.50679	-0.033894	-64.742	-2.6254	1204
421.13000	-538.3	-0.56886	-0.038201	-65.098	-2.6823	1204.1
421.13050	-544.93	-0.62851	-0.042343	-65.085	-2.7392	1204.3
421.13100	-559.39	-0.68084	-0.046057	-66.633	-2.7878	1204.4
421.13150	-579.08	-0.7264	-0.049297	-68.43	-2.8421	1204.5
421.13200	-592.55	-0.76771	-0.052232	-70.095	-2.8936	1204.6
421.13250	-606.36	-0.80933	-0.055126	-71.427	-2.9486	1204.8
421.13300	-622.64	-0.85397	-0.058237	-73.111	-3.0077	1204.9
421.13350	-634.75	-0.90193	-0.061656	-74.476	-3.0648	1205
421.13400	-632.77	-0.95397	-0.065303	-73.991	-3.1284	1205.1
421.13450	-637.91	-1.0082	-0.069161	-74.203	-3.1845	1205.3
421.13500	-653.79	-1.0616	-0.072984	-75.615	-3.2388	1205.4
421.13550	-672.3	-1.1133	-0.07669	-77.505	-3.296	1205.5
421.13600	-676.18	-1.1635	-0.080346	-77.96	-3.3478	1205.6
421.13650	-687.5	-1.2146	-0.084029	-78.791	-3.4073	1205.7
421.13700	-708.19	-1.2681	-0.08791	-80.342	-3.4703	1205.9
421.13750	-719.87	-1.3206	-0.091707	-82.024	-3.5172	1206
421.13800	-720.9	-1.371	-0.095392	-81.807	-3.5858	1206.1
421.13850	-719	-1.4199	-0.099001	-81.357	-3.6456	1206.2
421.13900	-725.12	-1.4726	-0.10289	-81.521	-3.71	1206.4
421.13950	-742.13	-1.5277	-0.10695	-83.035	-3.7662	1206.5
421.14000	-748.17	-1.5829	-0.11106	-83.637	-3.8241	1206.6
421.14050	-750.81	-1.6368	-0.11512	-83.431	-3.8814	1206.7
421.14100	-766.48	-1.6885	-0.11893	-84.8	-3.9407	1206.8
421.14150	-783.26	-1.7416	-0.12294	-86.262	-4.0058	1207
421.14200	-792.71	-1.794	-0.12689	-87.164	-4.0618	1207.1
421.14250	-792.85	-1.8482	-0.13107	-86.78	-4.1225	1207.1
421.14300	-796.52	-1.9037	-0.13524	-86.738	-4.1822	1207.2
421.14350	-810.17	-1.9577	-0.13942	-87.828	-4.2391	1207.3
421.14400	-818.44	-2.0115	-0.14351	-88.494	-4.3008	1207.4
421.14450	-819.87	-2.0643	-0.1476	-88.331	-4.3585	1207.5
421.14500	-823.56	-2.1165	-0.15168	-88.232	-4.4119	1207.5
421.14550	-837.26	-2.1683	-0.15569	-89.286	-4.4721	1207.6
421.14600	-849.16	-2.2182	-0.15962	-90.288	-4.5284	1207.7
421.14650	-853.08	-2.2693	-0.1636	-90.403	-4.5872	1207.8
421.14700	-847.11	-2.3205	-0.16758	-89.786	-4.644	1207.8
421.14750	-859.64	-2.3711	-0.17164	-90.152	-4.6973	1207.9
421.14800	-877.46	-2.4167	-0.1753	-91.798	-4.757	1208
421.14850	-885.8	-2.4599	-0.17877	-92.481	-4.813	1208.1
421.14900	-891.82	-2.5074	-0.18249	-92.669	-4.8741	1208.1
421.14950	-901.31	-2.5597	-0.18661	-93.251	-4.9278	1208.2
421.15000	-914.93	-2.6142	-0.19099	-94.237	-4.9821	1208.3
421.15050	-919.4	-2.6682	-0.19536	-94.367	-5.0427	1208.4
421.15100	-916.72	-2.7204	-0.19967	-93.787	-5.1005	1208.5
421.15150	-922.61	-2.7734	-0.20396	-93.784	-5.161	1208.5
421.15200	-936.68	-2.8253	-0.20826	-94.854	-5.2179	1208.6
421.15250	-945.25	-2.878	-0.21253	-95.372	-5.2768	1208.7
421.15300	-944.44	-2.9312	-0.21688	-94.953	-5.3375	1208.8
421.15350	-949.52	-2.9837	-0.22134	-94.905	-5.3941	1208.9
421.15400	-963.32	-3.0369	-0.22571	-95.819	-5.4533	1209
421.15450	-973	-3.0881	-0.23002	-96.48	-5.511	1209.1
421.15500	-974.39	-3.1404	-0.23442	-96.22	-5.5689	1209.2
421.15550	-978.64	-3.1924	-0.23883	-96.171	-5.6285	1209.3
421.15600	-988.9	-3.2449	-0.24325	-96.68	-5.6875	1209.4
421.15650	-1001.5	-3.297	-0.24769	-97.516	-5.7463	1209.5
421.15700	-1004.5	-3.3483	-0.25216	-97.498	-5.8017	1209.6
421.15750	-1014.9	-3.4011	-0.25665	-97.547	-5.8674	1209.7
421.15800	-1019.8	-3.4509	-0.26101	-97.924	-5.917	1209.8
421.15850	-1026.7	-3.4981	-0.26506	-98.317	-5.9795	1209.9
421.15900	-1026.6	-3.545	-0.26915	-97.939	-6.0409	1210
421.15950	-1024	-3.5978	-0.27371	-97.18	-6.0989	1210.1
421.16000	-1032.6	-3.6546	-0.27868	-97.401	-6.1621	1210.2
421.16050	-1048.8	-3.7113	-0.28371	-98.483	-6.2208	1210.3
421.16100	-1056.9	-3.7648	-0.28847	-98.847	-6.2749	1210.4
421.16150	-1054.4	-3.8179	-0.29319	-98.198	-6.3341	1210.5
421.16200	-1059.8	-3.8706	-0.2979	-98.114	-6.3923	1210.5
421.16250	-1071.5	-3.9221	-0.30262	-98.745	-6.4551	1210.5
421.16300	-1081.2	-3.9738	-0.30728	-99.182	-6.5082	1210.5
421.16350	-1080	-4.025	-0.3119	-98.766	-6.5649	1210.4
421.16400	-1084.3	-4.0765	-0.31658	-98.556	-6.6226	1210.4
421.16450	-1095.7	-4.1273	-0.32128	-99.132	-6.6798	1210.4
421.16500	-1105.8	-4.1789	-0.326	-99.526	-6.74	1210.3
421.16550	-1106.9	-4.2304	-0.33083	-99.326	-6.7961	1210.3
421.16600	-1106.7	-4.2821	-0.33561	-98.763	-6.8523	1210.3
421.16650	-1115.9	-4.3334	-0.3404	-98.987	-6.9087	1210.3
421.16700	-1129.2	-4.3841	-0.34519	-99.763	-6.9634	1210.2
421.16750	-1120.4	-4.4358	-0.35004	-99.007	-7.024	1210.2
421.16799	-1127.9	-4.4855	-0.35476	-98.779	-7.0765	1210.2
421.16849	-1142.6	-4.5309	-0.35919	-99.415	-7.134	1210.1
421.16899	-1162.6	-4.5774	-0.36356	-100.79	-7.1979	1210.1
421.16949	-1167.1	-4.6273	-0.36837	-100.83	-7.2527	1210.1
421.16999	-1167.1	-4.6828	-0.37364	-100.26	-7.3072	1210
421.17049	-1168.4	-4.7381	-0.37897	-99.768	-7.3653	1210
421.17099	-1182.5	-4.7917	-0.3843	-100.43	-7.4211	1210
421.17149	-1190.3	-4.8431	-0.38934	-100.67	-7.482	1210
421.17199	-1191.3	-4.895	-0.39443	-100.26	-7.5385	1209.9
421.17249	-1199.7	-4.9468	-0.39962	-100.34	-7.596	1209.9
421.17299	-1213.1	-4.9989	-0.40473	-100.91	-7.6505	1209.9
421.17349	-1225	-5.0513	-0.40996	-101.44	-7.7095	1209.9
421.17399	-1223.9	-5.1038	-0.41537	-100.91	-7.7715	1209.8
421.17449	-1227.4	-5.1563	-0.42068	-100.57	-7.8267	1209.8
421.17499	-1240.4	-5.209	-0.42599	-101.01	-7.8863	1209.8
421.17549	-1253.7	-5.2601	-0.43122	-101.63	-7.9404	1209.7
421.17599	-1256.4	-5.3109	-0.43649	-101.44	-7.9974	1209.7
421.17649	-1259.5	-5.362	-0.4417	-101.02	-8.0596	1209.7
421.17699	-1271.4	-5.4125	-0.44704	-101.38	-8.1118	1209.7
421.17749	-1286.7	-5.4626	-0.45222	-102.07	-8.1681	1209.6
421.17799	-1292.4	-5.512	-0.45742	-102.12	-8.2249	1209.6
421.17849	-1305.6	-5.5627	-0.46275	-102.41	-8.2837	1209.6
421.17899	-1308.8	-5.6114	-0.46795	-102.19	-8.34	1209.6
421.17949	-1321.9	-5.6579	-0.47297	-102.72	-8.3956	1209.5
421.17999	-1330.4	-5.7074	-0.47824	-102.9	-8.4555	1209.5
421.18049	-1335.7	-5.7599	-0.48393	-102.78	-8.5122	1209.5
421.18099	-1344.8	-5.8129	-0.48967	-102.8	-8.5696	1209.5
421.18149	-1363	-5.8659	-0.49535	-103.58	-8.6263	1209.4
421.18199	-1376.1	-5.9167	-0.50096	-104.08	-8.6789	1209.4
421.18249	-1381	-5.9678	-0.50657	-103.85	-8.7394	1209.3
421.18299	-1389.8	-6.0179	-0.51225	-103.87	-8.7926	1209.2
421.18349	-1409.9	-6.0687	-0.51784	-104.73	-8.8546	1209.2
421.18399	-1425.3	-6.119	-0.52353	-105.29	-8.9119	1209.1
421.18449	-1432.4	-6.1688	-0.52912	-105.36	-8.9638	1209
421.18499	-1441.2	-6.2199	-0.53486	-105.27	-9.022	1208.9
421.18549	-1460	-6.2707	-0.54071	-106.01	-9.0839	1208.9
421.18599	-1479.5	-6.3209	-0.54646	-106.8	-9.1402	1208.8
421.18649	-1491.2	-6.3708	-0.55228	-107.13	-9.1987	1208.7
421.18699	-1500.9	-6.4216	-0.55813	-107.16	-9.2537	1208.7
421.18749	-1518.1	-6.4725	-0.56402	-107.7	-9.3107	1208.6
421.18799	-1543.7	-6.5233	-0.57009	-108.81	-9.3713	1208.5
421.18849	-1547	-6.5746	-0.57615	-108.68	-9.4269	1208.4
421.18899	-1567.2	-6.6244	-0.58213	-109.19	-9.4895	1208.4
421.18949	-1588.1	-6.673	-0.58794	-109.98	-9.5439	1208.3
421.18999	-1615.6	-6.7229	-0.59391	-111.19	-9.6026	1208.2
421.19049	-1630.5	-6.7746	-0.60009	-111.64	-9.6617	1208.1
421.19099	-1638.8	-6.8269	-0.60644	-111.49	-9.7211	1208.1
421.19149	-1654.3	-6.8793	-0.61289	-111.75	-9.776	1208
421.19199	-1677.7	-6.9301	-0.61921	-112.59	-9.8283	1207.9
421.19249	-1702.8	-6.9797	-0.6254	-113.6	-9.8897	1207.9
421.19299	-1714.5	-7.0287	-0.63155	-113.76	-9.9441	1207.9
421.19349	-1730.3	-7.078	-0.63768	-114.07	-9.9979	1207.9
421.19399	-1755.6	-7.1271	-0.64393	-114.91	-10.05	1207.8
421.19449	-1784.2	-7.1749	-0.65004	-116.13	-10.105	1207.8
421.19499	-1800.4	-7.2233	-0.65625	-116.53	-10.166	1207.8
421.19549	-1818.6	-7.2722	-0.66256	-116.89	-10.219	1207.8
421.19599	-1845.4	-7.3209	-0.66888	-117.83	-10.272	1207.7
421.19649	-1878.3	-7.3698	-0.67517	-119.13	-10.327	1207.7
421.19699	-1902.8	-7.4182	-0.6816	-120.07	-10.38	1207.7
421.19749	-1920.6	-7.467	-0.68804	-120.37	-10.439	1207.7
421.19799	-1947.9	-7.5162	-0.6946	-121.19	-10.495	1207.6
421.19849	-1984.6	-7.564	-0.70108	-122.65	-10.551	1207.6
421.19899	-2019.1	-7.6127	-0.70754	-123.95	-10.604	1207.6
421.19949	-2036.2	-7.66	-0.71402	-124.36	-10.655	1207.6
421.19999	-2062.7	-7.7081	-0.72053	-125.05	-10.717	1207.5
421.20049	-2105.6	-7.756	-0.72727	-126.77	-10.772	1207.5
421.20099	-2143.9	-7.8049	-0.73389	-128.29	-10.827	1207.5
421.20149	-2170.9	-7.854	-0.74074	-129.05	-10.885	1207.5
421.20199	-2201.9	-7.9025	-0.74759	-129.95	-10.937	1207.4
421.20249	-2244.4	-7.9518	-0.75447	-131.47	-10.993	1207.4
421.20299	-2288.7	-8	-0.76139	-133.2	-11.053	1207.4
421.20349	-2321.9	-8.0484	-0.76832	-134.3	-11.103	1207.4
421.20399	-2352.9	-8.0965	-0.77527	-135.09	-11.16	1207.3
421.20449	-2396.8	-8.1446	-0.78233	-136.59	-11.213	1207.3
421.20499	-2448.6	-8.1927	-0.78921	-138.54	-11.27	1207.3
421.20549	-2490.6	-8.2405	-0.79628	-140.02	-11.324	1207.2
421.20599	-2523.9	-8.289	-0.80352	-140.87	-11.38	1207.2
421.20649	-2570.3	-8.3377	-0.81084	-142.32	-11.436	1207.2
421.20699	-2620.5	-8.386	-0.81811	-144.13	-11.488	1207.1
421.20749	-2651.9	-8.4338	-0.82527	-144.95	-11.544	1207.1
421.20799	-2669.5	-8.4806	-0.83246	-144.87	-11.593	1207.1
421.20849	-2682.5	-8.5261	-0.83957	-144.61	-11.642	1207.1
421.20899	-2699.1	-8.569	-0.8462	-144.56	-11.688	1207
421.20949	-2714.2	-8.6081	-0.8524	-144.5	-11.727	1207
421.20999	-2722.5	-8.6445	-0.85809	-144.07	-11.769	1207
421.21049	-2708.4	-8.6775	-0.86332	-142.74	-11.804	1206.9
421.21099	-2709.6	-8.7077	-0.86822	-141.94	-11.834	1206.9
421.21149	-2693.5	-8.7364	-0.87282	-140.67	-11.865	1206.9
421.21199	-2667.4	-8.7616	-0.87695	-138.71	-11.887	1206.9
421.21249	-2619.3	-8.7845	-0.88055	-135.89	-11.909	1206.8
421.21299	-2592.2	-8.8037	-0.88375	-133.84	-11.925	1206.8
421.21349	-2555.6	-8.8203	-0.88656	-131.79	-11.938	1206.8
421.21399	-2503.5	-8.8347	-0.88881	-128.83	-11.954	1206.8
421.21420	-2502.5	-8.8349	-0.88885	-128.77	-11.954	1206.8
421.71420	-583.18	-8.865	-0.89403	-29.818	-11.898	1090.6
422.21420	-410.48	-8.8641	-0.89389	-20.967	-11.888	966.15
422.71420	-349.98	-8.863	-0.89371	-17.878	-11.882	897.39
423.21420	-279.8	-8.8603	-0.89328	-14.301	-11.876	854.24
423.71420	-221.72	-8.8577	-0.89285	-11.338	-11.87	834.6
424.21420	-171.15	-8.8548	-0.89238	-8.7566	-11.864	822.53
424.71420	-124.74	-8.8522	-0.89197	-6.3849	-11.856	812.89
425.21420	-93.359	-8.8522	-0.89197	-4.7787	-11.849	804.09
425.71420	-77.697	-8.8551	-0.89243	-3.9739	-11.841	795.62
426.21420	-69.182	-8.8583	-0.89294	-3.5369	-11.834	787.67
426.71420	-61.29	-8.8618	-0.89351	-3.1318	-11.825	778.3
427.21420	-55.991	-8.8643	-0.89393	-2.8578	-11.82	768.83
427.71420	-52.325	-8.8659	-0.89418	-2.674	-11.812	758.38
428.21420	-50.342	-8.8671	-0.89438	-2.5712	-11.806	747.68
428.71420	-49.813	-8.868	-0.89453	-2.5432	-11.798	737.27
429.21420	-49.781	-8.8687	-0.89465	-2.541	-11.791	726.55
429.71420	-50.139	-8.8692	-0.89472	-2.5579	-11.785	715.51
430.21420	-49.901	-8.8699	-0.89483	-2.5471	-11.778	705.13
430.71420	-49.651	-8.8705	-0.89493	-2.5325	-11.769	694.58
431.21420	-49.644	-8.8711	-0.89502	-2.5308	-11.762	684.34
431.71420	-49.395	-8.8716	-0.89511	-2.5229	-11.756	674.81
432.21420	-49.571	-8.8719	-0.89516	-2.5261	-11.747	665.7
432.71420	-49.674	-8.8724	-0.89524	-2.5363	-11.74	656.66
433.21420	-49.564	-8.8729	-0.89532	-2.5263	-11.732	647.42
433.71420	-49.642	-8.8732	-0.89538	-2.5327	-11.724	638.26
434.21420	-49.583	-8.8737	-0.89545	-2.5321	-11.718	628.9
434.71420	-49.689	-8.8741	-0.89551	-2.5298	-11.711	620.3
435.21420	-49.793	-8.8744	-0.89557	-2.5394	-11.704	611.16
435.71420	-49.654	-8.8748	-0.89563	-2.5326	-11.696	602.61
436.21420	-49.801	-8.8752	-0.8957	-2.5396	-11.69	594.14
436.71420	-49.577	-8.8756	-0.89576	-2.5307	-11.683	585.93
437.21420	-49.807	-8.8759	-0.89582	-2.537	-11.675	577.94
437.71420	-49.793	-8.8762	-0.89586	-2.5424	-11.669	569.83
438.21420	-49.71	-8.8766	-0.89593	-2.5355	-11.662	562.31
438.71420	-49.993	-8.877	-0.89598	-2.5469	-11.654	554.82
439.21420	-49.731	-8.8773	-0.89604	-2.5375	-11.648	547.74
439.71420	-49.948	-8.8775	-0.89609	-2.5421	-11.64	540.85
440.21420	-49.976	-8.8778	-0.89613	-2.5498	-11.634	533.63
440.71420	-49.95	-8.8781	-0.89617	-2.5486	-11.626	527.51
441.21420	-50.144	-8.8785	-0.89624	-2.555	-11.619	521.13
441.71420	-50.059	-8.8787	-0.89627	-2.5529	-11.612	515.23
442.21420	-50.06	-8.879	-0.89632	-2.5499	-11.604	509.5
442.71420	-50.269	-8.8792	-0.89636	-2.5628	-11.598	503.88
443.21420	-50.227	-8.8795	-0.8964	-2.5601	-11.592	498.46
443.71420	-50.443	-8.8798	-0.89646	-2.5687	-11.584	492.98
444.21420	-50.302	-8.88	-0.89648	-2.5651	-11.576	488.02
444.71420	-50.307	-8.8802	-0.89653	-2.5604	-11.569	483.17
445.21420	-50.403	-8.8805	-0.89658	-2.5686	-11.561	478.2
445.71420	-50.235	-8.8807	-0.89661	-2.5612	-11.555	473.36
446.21420	-50.471	-8.8809	-0.89664	-2.5715	-11.547	468.51
446.71420	-50.403	-8.8812	-0.89669	-2.5705	-11.539	464.14
447.21420	-50.335	-8.8814	-0.89673	-2.5637	-11.533	459.79
447.71420	-50.648	-8.8817	-0.89677	-2.58	-11.526	455.53
448.21420	-50.421	-8.8819	-0.89679	-2.5692	-11.519	451.35
448.71420	-50.565	-8.882	-0.89683	-2.5739	-11.511	447.13
449.21420	-50.432	-8.8822	-0.89685	-2.5701	-11.503	443.29
449.71420	-50.583	-8.8825	-0.8969	-2.5733	-11.496	439.52
450.21420	-50.541	-8.8826	-0.89691	-2.5748	-11.49	435.84
450.71420	-50.437	-8.8827	-0.89694	-2.5701	-11.482	432.49
451.21420	-50.697	-8.8829	-0.89697	-2.5817	-11.475	429.03
451.71420	-50.598	-8.8831	-0.89699	-2.5792	-11.469	425.68
452.21420	-50.617	-8.8832	-0.897	-2.5782	-11.462	422.48
452.71420	-50.711	-8.8833	-0.89703	-2.5825	-11.456	419.61
453.21420	-50.581	-8.8835	-0.89706	-2.5759	-11.449	416.7
453.71420	-50.7	-8.8837	-0.8971	-2.5798	-11.443	413.88
454.21420	-50.712	-8.8838	-0.89712	-2.5846	-11.436	411.38
454.71420	-50.656	-8.8839	-0.89714	-2.5792	-11.428	408.88
455.21420	-50.884	-8.884	-0.89714	-2.5883	-11.42	406.13
455.71420	-50.604	-8.8841	-0.89716	-2.5762	-11.413	403.65
456.21420	-50.79	-8.8843	-0.89718	-2.584	-11.406	401.12
456.71420	-50.688	-8.8844	-0.8972	-2.5844	-11.4	398.64
457.21420	-50.601	-8.8844	-0.8972	-2.5753	-11.392	395.9
457.71420	-50.843	-8.8845	-0.89722	-2.5928	-11.386	393.14
458.21420	-50.546	-8.8846	-0.89724	-2.5756	-11.377	390.48
458.71420	-50.893	-8.8847	-0.89726	-2.5897	-11.372	387.32
459.21420	-50.839	-8.8849	-0.89729	-2.5892	-11.365	384.3
459.71420	-50.616	-8.8851	-0.89732	-2.5772	-11.356	381.29
460.21420	-50.643	-8.8852	-0.89733	-2.5796	-11.348	378.2
460.71420	-50.412	-8.8852	-0.89733	-2.5678	-11.34	374.8
461.21420	-50.589	-8.8853	-0.89734	-2.5727	-11.334	371.6
461.71420	-50.577	-8.8854	-0.89737	-2.5776	-11.326	367.98
462.21420	-50.545	-8.8855	-0.89738	-2.5714	-11.318	364.49
462.71420	-50.746	-8.8856	-0.8974	-2.585	-11.312	360.67
463.21420	-50.424	-8.8857	-0.89742	-2.5682	-11.304	357.08
463.71420	-50.607	-8.8859	-0.89744	-2.5734	-11.297	353
464.21420	-50.43	-8.8859	-0.89745	-2.5678	-11.29	349.3
464.71420	-50.416	-8.886	-0.89746	-2.5644	-11.282	345.23
465.21420	-50.658	-8.8861	-0.89749	-2.5782	-11.276	341.29
465.71420	-50.191	-8.8861	-0.89748	-2.5551	-11.27	337.2
466.21420	-50.429	-8.8862	-0.89751	-2.5673	-11.262	333.17
466.71420	-50.148	-8.8862	-0.8975	-2.5546	-11.256	328.9
467.21420	-49.878	-8.8862	-0.89751	-2.5371	-11.247	324.8
467.71420	-49.896	-8.8863	-0.89751	-2.5415	-11.241	320.57
468.21420	-49.731	-8.8864	-0.89753	-2.5301	-11.232	316.52
468.71420	-49.996	-8.8863	-0.89752	-2.5441	-11.225	312.19
469.21420	-49.734	-8.8865	-0.89755	-2.5323	-11.219	307.99
469.71420	-49.953	-8.8866	-0.89756	-2.5402	-11.212	303.96
470.21420	-49.762	-8.8866	-0.89757	-2.535	-11.205	299.82
470.71420	-49.689	-8.8867	-0.89758	-2.5264	-11.198	295.78
471.21420	-49.868	-8.8866	-0.89758	-2.54	-11.19	291.76
471.71420	-49.512	-8.8867	-0.89759	-2.5218	-11.185	287.79
472.21420	-49.68	-8.8868	-0.8976	-2.528	-11.177	283.65
472.71420	-49.471	-8.8868	-0.8976	-2.5219	-11.171	279.78
473.21420	-49.447	-8.8868	-0.89761	-2.513	-11.164	276.03
473.71420	-49.529	-8.8868	-0.89761	-2.5209	-11.157	272.44
474.21420	-49.172	-8.8867	-0.8976	-2.5034	-11.149	268.69
474.71420	-49.33	-8.8868	-0.8976	-2.5104	-11.142	264.94
475.21420	-49.049	-8.8868	-0.8976	-2.4998	-11.135	261.54
475.71420	-49.171	-8.8869	-0.89762	-2.5034	-11.129	257.97
476.21420	-49.021	-8.8869	-0.89762	-2.4991	-11.12	254.68
476.71420	-48.942	-8.8869	-0.89762	-2.4887	-11.114	251.32
477.21420	-48.766	-8.8869	-0.89761	-2.4843	-11.106	248.16
477.71420	-48.493	-8.8868	-0.8976	-2.4686	-11.1	245.06
478.21420	-48.085	-8.8866	-0.89757	-2.4465	-11.091	242.18
478.71420	-47.8	-8.8866	-0.89756	-2.4349	-11.085	239.26
479.21420	-47.808	-8.8866	-0.89758	-2.4298	-11.077	236.55
479.71420	-47.944	-8.8866	-0.89757	-2.4415	-11.069	233.97
480.21420	-47.638	-8.8865	-0.89756	-2.4242	-11.064	231.26
480.71420	-47.739	-8.8865	-0.89754	-2.428	-11.056	228.8
481.21420	-47.527	-8.8865	-0.89755	-2.4213	-11.048	226.33
481.71420	-47.582	-8.8864	-0.89753	-2.4217	-11.04	224.03
482.21420	-47.261	-8.8864	-0.89753	-2.4087	-11.034	221.89
482.71420	-47.152	-8.8864	-0.89752	-2.396	-11.026	219.75
483.21420	-47.192	-8.8864	-0.89754	-2.4015	-11.019	217.68
483.71420	-46.841	-8.8864	-0.89753	-2.3868	-11.011	215.61
484.21420	-46.98	-8.8863	-0.89752	-2.3889	-11.004	213.71
484.71420	-46.686	-8.8862	-0.89751	-2.3789	-10.997	211.72
485.21420	-46.644	-8.8862	-0.89749	-2.3728	-10.99	209.97
485.71420	-46.547	-8.8861	-0.89747	-2.3679	-10.982	208.29
486.21420	-46.335	-8.8861	-0.89748	-2.3589	-10.975	206.37
486.71420	-46.308	-8.8861	-0.89748	-2.3573	-10.968	204.58
487.21420	-46.066	-8.8861	-0.89747	-2.3477	-10.962	202.8
487.71420	-46.121	-8.8861	-0.89748	-2.3458	-10.955	200.93
488.21420	-45.829	-8.8859	-0.89745	-2.3339	-10.945	199.27
488.71420	-45.671	-8.8859	-0.89745	-2.3238	-10.939	197.41
489.21420	-45.806	-8.8859	-0.89746	-2.3341	-10.932	195.61
489.71420	-45.429	-8.8858	-0.89744	-2.3126	-10.926	193.9
490.21420	-45.402	-8.8857	-0.89743	-2.3084	-10.919	192.07
490.71420	-45.086	-8.8857	-0.89742	-2.2954	-10.911	190.27
491.21420	-45.061	-8.8856	-0.89741	-2.2899	-10.903	188.6
491.71420	-45.134	-8.8856	-0.8974	-2.2996	-10.895	186.75
492.21420	-44.714	-8.8856	-0.89741	-2.2747	-10.888	185.04
492.71420	-44.721	-8.8856	-0.8974	-2.277	-10.883	183.31
493.21420	-44.433	-8.8855	-0.89739	-2.2637	-10.874	181.71
493.71420	-44.573	-8.8855	-0.89738	-2.2683	-10.868	179.97
494.21420	-44.34	-8.8854	-0.89737	-2.2584	-10.862	178.22
494.71420	-44.055	-8.8855	-0.89738	-2.2424	-10.856	176.54
495.21420	-43.995	-8.8854	-0.89738	-2.2414	-10.85	174.86
495.71420	-43.749	-8.8854	-0.89737	-2.226	-10.842	173.2
496.21420	-43.787	-8.8853	-0.89736	-2.2308	-10.835	171.55
496.71420	-43.502	-8.8853	-0.89736	-2.218	-10.829	169.77
497.21420	-43.272	-8.8852	-0.89734	-2.2008	-10.822	168.27
497.71420	-43.302	-8.8851	-0.89733	-2.2068	-10.815	166.58
498.21420	-42.926	-8.885	-0.89732	-2.1854	-10.805	164.89
498.71420	-43.051	-8.8849	-0.89729	-2.191	-10.8	163.27
499.21420	-42.605	-8.8849	-0.8973	-2.1718	-10.793	161.69
499.71420	-42.547	-8.8849	-0.89729	-2.1654	-10.784	160.27
500.21420	-42.448	-8.8848	-0.89728	-2.1619	-10.778	158.73
500.71420	-42.093	-8.8847	-0.89726	-2.1435	-10.77	157.07
501.21420	-42.159	-8.8846	-0.89724	-2.148	-10.763	155.62
501.71420	-41.837	-8.8846	-0.89725	-2.13	-10.755	154.23
502.21420	-41.903	-8.8847	-0.89725	-2.132	-10.749	152.64
502.71420	-41.688	-8.8846	-0.89725	-2.1228	-10.74	151.22
503.21420	-41.47	-8.8846	-0.89724	-2.1103	-10.732	149.69
503.71420	-41.379	-8.8846	-0.89723	-2.1082	-10.725	148.44
504.21420	-40.98	-8.8844	-0.89721	-2.0864	-10.718	147.01
504.71420	-41.035	-8.8844	-0.89721	-2.091	-10.71	145.49
505.21420	-40.656	-8.8844	-0.89721	-2.0727	-10.703	144.14
505.71420	-40.63	-8.8844	-0.89721	-2.0679	-10.695	142.81
506.21420	-40.548	-8.8843	-0.8972	-2.0686	-10.688	141.56
506.71420	-40.285	-8.8843	-0.89718	-2.052	-10.681	140.3
507.21420	-40.318	-8.8842	-0.89718	-2.0533	-10.675	138.97
507.71420	-39.962	-8.8842	-0.89716	-2.0358	-10.669	137.74
508.21420	-39.975	-8.8842	-0.89717	-2.0352	-10.661	136.4
508.71420	-39.673	-8.8842	-0.89717	-2.0209	-10.654	135.2
509.21420	-39.688	-8.8841	-0.89715	-2.0193	-10.646	133.99
509.71420	-39.492	-8.8841	-0.89715	-2.0122	-10.637	132.77
510.21420	-39.187	-8.8839	-0.89713	-1.9954	-10.632	131.68
510.71420	-39.209	-8.8838	-0.89711	-1.9974	-10.624	130.63
511.21420	-39.057	-8.8838	-0.8971	-1.9898	-10.617	129.57
511.71420	-38.853	-8.8838	-0.89711	-1.9767	-10.609	128.47
512.21420	-38.711	-8.8838	-0.89711	-1.9728	-10.603	127.31
512.71420	-38.474	-8.8838	-0.89709	-1.9571	-10.594	126.25
513.21420	-38.445	-8.8837	-0.89709	-1.9583	-10.587	125.25
513.71420	-38.179	-8.8837	-0.8971	-1.9454	-10.579	124.17
514.21420	-38.17	-8.8836	-0.89708	-1.9426	-10.573	123.16
514.71420	-37.793	-8.8836	-0.89708	-1.927	-10.565	122.25
515.21420	-37.776	-8.8836	-0.89707	-1.9211	-10.559	121.27
515.71420	-37.722	-8.8835	-0.89706	-1.9202	-10.553	120.25
516.21420	-37.363	-8.8835	-0.89705	-1.9035	-10.545	119.43
516.71420	-37.339	-8.8834	-0.89705	-1.9	-10.538	118.39
517.21420	-37.051	-8.8834	-0.89705	-1.8893	-10.531	117.5
517.71420	-37.067	-8.8833	-0.89703	-1.8881	-10.524	116.59
518.21420	-36.884	-8.8833	-0.89703	-1.8806	-10.517	115.7
518.71420	-36.585	-8.8833	-0.89702	-1.8634	-10.509	114.88
519.21420	-36.664	-8.8832	-0.89701	-1.8661	-10.502	113.94
519.71420	-36.39	-8.8831	-0.89699	-1.8558	-10.494	113.06
520.21420	-36.23	-8.883	-0.89698	-1.8441	-10.488	112.23
520.71420	-36.231	-8.883	-0.89699	-1.8463	-10.48	111.35
521.21420	-36.015	-8.883	-0.89699	-1.8315	-10.473	110.49
521.71420	-36.012	-8.883	-0.89698	-1.8365	-10.465	109.78
522.21420	-35.548	-8.8829	-0.89696	-1.813	-10.458	108.82
522.71420	-35.665	-8.8829	-0.89696	-1.8162	-10.451	108.1
523.21420	-35.454	-8.8828	-0.89696	-1.8065	-10.444	107.3
523.71420	-35.196	-8.8828	-0.89696	-1.7917	-10.436	106.54
524.21420	-35.264	-8.8828	-0.89695	-1.7953	-10.429	105.79
524.71420	-35.001	-8.8828	-0.89694	-1.7828	-10.422	104.95
525.21420	-34.996	-8.8828	-0.89695	-1.7804	-10.415	104.18
525.71420	-34.843	-8.8828	-0.89695	-1.7756	-10.407	103.54
526.21420	-34.461	-8.8827	-0.89694	-1.7531	-10.399	102.79
526.71420	-34.543	-8.8827	-0.89694	-1.7601	-10.393	102.11
527.21420	-34.217	-8.8827	-0.89694	-1.7458	-10.385	101.52
527.71420	-34.299	-8.8827	-0.89693	-1.7464	-10.379	100.68
528.21420	-34.024	-8.8827	-0.89692	-1.734	-10.37	100.01
528.71420	-33.971	-8.8827	-0.89692	-1.7277	-10.363	99.372
529.21420	-33.775	-8.8826	-0.89691	-1.722	-10.355	98.688
529.71420	-33.562	-8.8825	-0.8969	-1.7075	-10.347	98.033
530.21420	-33.568	-8.8825	-0.8969	-1.7102	-10.34	97.473
530.71420	-33.231	-8.8825	-0.89689	-1.6957	-10.333	96.756
531.21420	-33.168	-8.8824	-0.89689	-1.687	-10.326	96.152
531.71420	-33.17	-8.8825	-0.89689	-1.6907	-10.318	95.568
532.21420	-32.86	-8.8824	-0.89687	-1.6749	-10.311	94.949
532.71420	-32.879	-8.8824	-0.89688	-1.6732	-10.305	94.299
533.21420	-32.587	-8.8823	-0.89686	-1.6625	-10.297	93.65
533.71420	-32.451	-8.8824	-0.89686	-1.6523	-10.291	93.018
534.21420	-32.384	-8.8824	-0.89687	-1.6506	-10.283	92.441
534.71420	-32.171	-8.8822	-0.89685	-1.6381	-10.275	91.836
535.21420	-32.285	-8.8823	-0.89686	-1.6425	-10.269	91.265
535.71420	-31.93	-8.8822	-0.89684	-1.6284	-10.261	90.68
536.21420	-31.859	-8.8822	-0.89684	-1.623	-10.255	90.085
536.71420	-31.687	-8.8822	-0.89684	-1.6151	-10.248	89.554
537.21420	-31.511	-8.8822	-0.89683	-1.6034	-10.242	88.922
537.71420	-31.547	-8.8822	-0.89683	-1.6058	-10.235	88.491
538.21420	-31.235	-8.8821	-0.89682	-1.5917	-10.227	87.933
538.71420	-31.304	-8.8821	-0.89683	-1.5928	-10.22	87.384
539.21420	-31.027	-8.882	-0.89681	-1.5831	-10.213	86.833
539.71420	-30.806	-8.8821	-0.89683	-1.5687	-10.205	86.327
540.21420	-30.839	-8.882	-0.89682	-1.5703	-10.199	85.714
540.71420	-30.643	-8.882	-0.89681	-1.5614	-10.191	85.334
541.21420	-30.608	-8.8819	-0.8968	-1.5583	-10.184	84.786
541.71420	-30.324	-8.8819	-0.8968	-1.5466	-10.177	84.254
542.21420	-30.144	-8.882	-0.89682	-1.5354	-10.17	83.861
542.71420	-30.259	-8.882	-0.89681	-1.5414	-10.162	83.304
543.21420	-29.951	-8.8819	-0.89679	-1.5258	-10.154	82.891
543.71420	-30.002	-8.882	-0.89681	-1.5271	-10.147	82.366
544.21420	-29.844	-8.8819	-0.89679	-1.5223	-10.14	81.928
544.71420	-29.74	-8.8819	-0.8968	-1.5125	-10.133	81.495
545.21420	-29.594	-8.8819	-0.8968	-1.5084	-10.125	81.008
545.71420	-29.347	-8.8818	-0.89678	-1.4969	-10.117	80.6
546.21420	-29.395	-8.8818	-0.89679	-1.4942	-10.109	80.191
546.71420	-29.182	-8.8818	-0.89679	-1.4887	-10.104	79.778
547.21420	-29.104	-8.8818	-0.89679	-1.4799	-10.095	79.457
547.71420	-29.107	-8.8818	-0.89678	-1.4848	-10.088	78.932
548.21420	-28.73	-8.8818	-0.89679	-1.4647	-10.081	78.489
548.71420	-28.805	-8.8818	-0.89679	-1.4661	-10.074	78.144
549.21420	-28.673	-8.8818	-0.89679	-1.4618	-10.066	77.616
549.71420	-28.573	-8.8817	-0.89676	-1.4516	-10.06	77.302
550.21420	-28.498	-8.8817	-0.89677	-1.4528	-10.053	76.902
550.71420	-28.152	-8.8817	-0.89677	-1.4346	-10.046	76.503
551.21420	-28.248	-8.8817	-0.89678	-1.438	-10.037	76.089
551.71420	-28.344	-8.8818	-0.89679	-1.4459	-10.031	75.773
552.21420	-28.25	-8.8818	-0.89679	-1.4384	-10.023	75.48
552.71420	-28.466	-8.8818	-0.89679	-1.4499	-10.017	75.023
553.21420	-28.209	-8.8818	-0.8968	-1.4359	-10.01	74.617
553.71420	-28.424	-8.8818	-0.89679	-1.4478	-10.003	74.255
554.21420	-28.093	-8.8819	-0.8968	-1.4318	-9.9946	73.928
554.71420	-28.19	-8.882	-0.89681	-1.4333	-9.9882	73.402
555.21420	-28.138	-8.8821	-0.89682	-1.4347	-9.9815	73.137
555.71420	-27.972	-8.8821	-0.89682	-1.4249	-9.9718	72.751
556.21420	-28.175	-8.882	-0.89682	-1.4349	-9.9663	72.528
556.71420	-27.943	-8.8821	-0.89683	-1.4264	-9.9593	72.173
557.21420	-27.858	-8.8821	-0.89683	-1.419	-9.951	71.668
557.71420	-27.776	-8.8822	-0.89686	-1.4189	-9.9436	71.35
558.21420	-27.56	-8.8822	-0.89685	-1.4024	-9.9378	70.987
558.71420	-27.553	-8.8822	-0.89685	-1.4041	-9.9304	70.586
559.21420	-27.346	-8.8824	-0.89686	-1.3941	-9.9237	70.4
559.71420	-27.447	-8.8825	-0.89688	-1.3966	-9.9167	69.954
560.21420	-27.2	-8.8825	-0.89689	-1.3907	-9.9097	69.634
560.71420	-27.239	-8.8825	-0.8969	-1.3867	-9.9016	69.283
561.21420	-27.201	-8.8825	-0.8969	-1.3857	-9.8943	68.958
561.71420	-26.999	-8.8826	-0.89691	-1.3739	-9.8877	68.688
562.21420	-27.163	-8.8825	-0.8969	-1.3818	-9.8813	68.405
562.71420	-26.924	-8.8826	-0.89691	-1.3737	-9.8732	68.099
563.21420	-26.778	-8.8827	-0.89691	-1.363	-9.8668	67.75
563.71420	-26.833	-8.8827	-0.89692	-1.367	-9.8579	67.46
564.21420	-26.534	-8.8828	-0.89693	-1.3519	-9.8525	67.179
564.71420	-26.626	-8.8827	-0.89694	-1.3557	-9.8458	66.898
565.21420	-26.492	-8.8828	-0.89694	-1.35	-9.838	66.565
565.71420	-26.283	-8.8828	-0.89695	-1.3391	-9.8308	66.287
566.21420	-26.442	-8.8829	-0.89695	-1.349	-9.8219	65.948
566.71420	-26.274	-8.8828	-0.89694	-1.3384	-9.8169	65.703
567.21420	-26.247	-8.8828	-0.89695	-1.3355	-9.8101	65.45
567.71420	-25.99	-8.8829	-0.89696	-1.3267	-9.8003	65.198
568.21420	-26.013	-8.8829	-0.89696	-1.3226	-9.7932	64.923
568.71420	-25.913	-8.8828	-0.89695	-1.322	-9.7861	64.621
569.21420	-25.674	-8.8829	-0.89695	-1.3083	-9.7789	64.383
569.71420	-25.783	-8.883	-0.89697	-1.3128	-9.7724	64.062
570.21420	-25.554	-8.8829	-0.89697	-1.3043	-9.7657	63.821
570.71420	-25.55	-8.883	-0.89697	-1.2986	-9.7577	63.561
571.21420	-25.481	-8.883	-0.89697	-1.2996	-9.7507	63.148
571.71420	-25.288	-8.883	-0.89699	-1.2878	-9.7423	62.936
572.21420	-25.427	-8.8831	-0.89699	-1.2946	-9.7369	62.764
572.71420	-25.03	-8.883	-0.89698	-1.2777	-9.729	62.456
573.21420	-25.189	-8.8831	-0.89699	-1.2815	-9.7208	62.226
573.71420	-24.958	-8.8831	-0.89699	-1.2729	-9.7153	62.044
574.21420	-24.864	-8.883	-0.89698	-1.2638	-9.706	61.931
574.71420	-24.985	-8.8831	-0.897	-1.2733	-9.6999	61.529
575.21420	-24.81	-8.8831	-0.89699	-1.2632	-9.6929	61.296
575.71420	-24.767	-8.883	-0.89699	-1.2598	-9.6865	60.942
576.21420	-24.586	-8.8831	-0.89699	-1.2547	-9.6795	60.839
576.71420	-24.439	-8.8831	-0.897	-1.2442	-9.673	60.555
577.21420	-24.476	-8.883	-0.89698	-1.2468	-9.6653	60.317
577.71420	-24.29	-8.8831	-0.897	-1.2366	-9.659	60.092
578.21420	-24.319	-8.8831	-0.897	-1.2365	-9.6505	59.935
578.71420	-24.151	-8.8832	-0.89701	-1.2324	-9.6459	59.655
579.21420	-24.039	-8.8831	-0.897	-1.2226	-9.6368	59.463
579.71420	-24.145	-8.8832	-0.89701	-1.2313	-9.6291	59.192
580.21420	-23.883	-8.8832	-0.89701	-1.2138	-9.6207	59.049
580.71420	-23.927	-8.8832	-0.89701	-1.2198	-9.6142	58.781
581.21420	-23.677	-8.8832	-0.89701	-1.2078	-9.6078	58.57
