Time(sec)	Force(kgf)	LGauge(mm)	Strain	Stress(MPa)	Stroke(mm)	TC1(C)
0.00000	-165.19	-0.020753	-0.0013912	-20.605	0.093257	30.899
1.00000	-165.09	-0.0010229	-6.6311e-05	-20.615	0.093499	30.829
2.00000	-165.12	-0.00025263	-1.4085e-05	-20.621	0.094263	30.8
3.00000	-164.88	-0.00022498	-1.4262e-05	-20.586	0.093838	30.782
4.00000	-164.97	-0.00025127	-1.5669e-05	-20.606	0.094007	30.773
5.00000	-164.79	-0.00033369	-2.053e-05	-20.575	0.094636	30.76
6.00000	-164.75	-0.00037763	-2.1465e-05	-20.575	0.093867	30.739
7.00000	-168.83	0.00046786	3.2663e-05	-21.081	0.094372	30.917
8.00000	-184.26	0.00072206	4.828e-05	-23.019	0.094564	34.696
9.00000	-190.52	0.00071186	4.9073e-05	-23.796	0.096336	42.378
10.00000	-192.65	0.00050367	3.5477e-05	-24.061	0.097011	47.928
11.00000	-198.49	0.00054133	3.6781e-05	-24.785	0.098055	52.139
12.00000	-202.39	0.001288	8.6133e-05	-25.263	0.098304	57.587
13.00000	-205.05	0.0018274	0.00012288	-25.612	0.098377	63.043
14.00000	-206.87	0.0025231	0.00016722	-25.832	0.1003	67.915
15.00000	-209.4	0.0035133	0.00023438	-26.153	0.099728	72.778
15.52350	-210.73	0.0040178	0.00026683	-26.318	0.09962	75.521
16.52350	-212.49	0.0051601	0.00034257	-26.544	0.099709	80.643
17.52350	-213.51	0.0063776	0.00042445	-26.661	0.099906	85.706
18.52350	-214.29	0.0075988	0.00050528	-26.773	0.1001	90.643
19.52350	-214.84	0.0092061	0.00061119	-26.85	0.099688	95.587
19.64110	-214.91	0.0093788	0.00062247	-26.859	0.10032	96.186
20.64110	-215.28	0.010931	0.00072533	-26.912	0.099923	101.29
21.64110	-215.86	0.012491	0.00083089	-26.982	0.09927	106.32
22.64110	-216.22	0.014189	0.00094398	-27.031	0.0999	111.29
23.64110	-216.6	0.015889	0.0010572	-27.08	0.099628	116.29
24.64110	-216.74	0.017603	0.0011715	-27.098	0.099405	121.38
25.64110	-217.25	0.019352	0.0012881	-27.166	0.099301	126.35
26.64110	-217.52	0.021087	0.0014047	-27.195	0.099356	131.35
27.64110	-217.69	0.022963	0.0015315	-27.229	0.098078	136.36
28.64110	-217.92	0.024754	0.0016493	-27.256	0.097757	141.25
29.64110	-218.13	0.026523	0.0017669	-27.295	0.098133	146.38
30.64110	-218.6	0.028281	0.0018864	-27.348	0.097179	151.31
31.64110	-218.52	0.030236	0.0020167	-27.35	0.096907	156.25
32.64110	-218.95	0.031954	0.0021293	-27.403	0.096239	161.23
33.64110	-219.02	0.033714	0.0022453	-27.41	0.095853	166.14
34.64110	-219.14	0.035792	0.0023849	-27.429	0.095941	171.1
35.64110	-219.08	0.037711	0.002512	-27.425	0.094668	176.32
36.64110	-219.4	0.039567	0.0026348	-27.472	0.095276	181.3
37.64110	-219.32	0.041322	0.002752	-27.458	0.094473	186.23
38.64110	-219.52	0.043432	0.0028913	-27.492	0.094411	191.3
39.64110	-219.43	0.045648	0.0030381	-27.475	0.092978	196.29
40.64110	-219.66	0.047431	0.0031573	-27.519	0.09334	201.41
41.64110	-219.67	0.049598	0.0032995	-27.515	0.093411	206.17
42.64110	-219.41	0.052091	0.0034657	-27.497	0.092648	211.32
43.64110	-219.75	0.054027	0.0035947	-27.536	0.092864	216.52
44.64110	-219.51	0.056251	0.003742	-27.517	0.093281	221.35
45.64110	-219.61	0.05866	0.0039012	-27.525	0.092378	226.38
46.64110	-219.74	0.060746	0.0040388	-27.545	0.091408	231.46
47.64110	-220.04	0.062945	0.0041848	-27.587	0.091791	236.32
48.64110	-219.82	0.065289	0.0043428	-27.57	0.092262	241.22
49.64110	-220.02	0.067604	0.0044942	-27.603	0.091792	246.15
50.64110	-219.83	0.070175	0.0046645	-27.572	0.091875	251.24
51.64110	-220.19	0.072439	0.0048174	-27.629	0.092544	256.41
52.64110	-220.23	0.074474	0.0049556	-27.632	0.09154	261.28
53.64110	-219.99	0.076893	0.0051145	-27.628	0.091477	266.25
54.64110	-219.8	0.079272	0.0052722	-27.59	0.091087	271.23
55.64110	-219.78	0.0817	0.0054326	-27.595	0.090994	276.33
56.45030	-220.24	0.083409	0.0055467	-27.647	0.09087	280.41
57.45030	-219.99	0.086087	0.0057257	-27.627	0.090244	285.33
58.45030	-220.4	0.088575	0.0058892	-27.676	0.090283	290.53
58.70380	-220.5	0.089073	0.0059213	-27.696	0.091487	291.83
59.70380	-220.21	0.091398	0.0060768	-27.672	0.090451	296.67
60.70380	-219.99	0.093905	0.006242	-27.65	0.089933	301.5
61.70380	-220.06	0.096122	0.0063899	-27.648	0.088955	306.62
62.70380	-220.22	0.098223	0.006528	-27.678	0.088792	311.48
63.70380	-220.2	0.10114	0.0067207	-27.676	0.089055	316.47
64.70380	-220.39	0.10335	0.0068672	-27.707	0.088794	321.87
65.70380	-220.81	0.1054	0.0070027	-27.763	0.088464	326.87
66.70380	-220.23	0.10733	0.0071304	-27.702	0.088791	331.68
67.70380	-220.35	0.10945	0.0072697	-27.714	0.088622	336.57
68.70380	-220.5	0.11182	0.0074268	-27.73	0.088026	341.68
69.70380	-220.71	0.11392	0.0075647	-27.77	0.088133	346.76
70.70380	-220.88	0.11585	0.0076921	-27.786	0.087928	351.68
71.70380	-220.98	0.11821	0.0078483	-27.814	0.088337	356.6
72.70380	-220.7	0.12031	0.0079882	-27.785	0.087038	361.49
73.70380	-220.44	0.12279	0.0081506	-27.758	0.08718	366.3
74.70380	-220.68	0.12537	0.0083219	-27.784	0.088558	371.35
75.70380	-220.52	0.12769	0.0084742	-27.772	0.090358	376.49
76.70380	-220.9	0.13018	0.0086404	-27.817	0.090572	381.47
77.70380	-220.87	0.13275	0.0088109	-27.816	0.091125	386.41
78.70380	-221.09	0.13545	0.0089924	-27.86	0.09089	391.43
79.70380	-221.02	0.1378	0.0091461	-27.855	0.091139	396.53
80.70380	-220.9	0.14009	0.0092966	-27.854	0.09003	401.56
81.70380	-220.79	0.14252	0.0094583	-27.827	0.090302	406.55
82.70380	-220.82	0.14506	0.0096295	-27.844	0.089407	411.59
83.70380	-221	0.14758	0.0097916	-27.859	0.08972	416.41
84.70380	-221.12	0.15011	0.0099587	-27.889	0.088628	421.39
85.70380	-221.14	0.1531	0.010158	-27.89	0.0884	426.36
86.70380	-221	0.15596	0.010346	-27.882	0.087195	431.56
87.70380	-221.41	0.15849	0.010512	-27.936	0.08831	436.78
88.70380	-221.3	0.16113	0.010686	-27.931	0.088251	441.62
89.70380	-221.43	0.16403	0.010877	-27.951	0.088927	446.52
90.70380	-221.24	0.16697	0.011069	-27.93	0.089755	451.57
91.70380	-221.43	0.1699	0.011263	-27.965	0.089668	456.57
92.70380	-221.51	0.17274	0.011449	-27.971	0.088884	461.75
93.70380	-221.53	0.17512	0.011607	-27.986	0.088915	466.82
94.70380	-221.69	0.1778	0.011782	-28.004	0.089324	471.69
95.70380	-221.77	0.1808	0.011979	-28.027	0.09015	476.59
96.70380	-221.85	0.18379	0.012177	-28.033	0.090974	481.63
97.41330	-221.85	0.18579	0.012308	-28.043	0.091025	485.22
98.41330	-221.88	0.18864	0.012496	-28.046	0.091777	490.16
98.44080	-221.91	0.18875	0.012503	-28.051	0.091702	490.3
99.44080	-221.89	0.19159	0.012689	-28.062	0.092846	495.3
100.44080	-222.03	0.1944	0.012876	-28.084	0.09338	500.23
101.44080	-221.93	0.19754	0.013082	-28.077	0.093396	505.27
102.44080	-222.13	0.20046	0.013275	-28.105	0.091186	510.24
103.44080	-221.98	0.20336	0.013466	-28.098	0.090501	515.29
104.44080	-222.12	0.20635	0.013664	-28.117	0.091904	520.46
105.44080	-222.17	0.20869	0.013815	-28.127	0.091876	525.53
106.44080	-222.34	0.21132	0.013991	-28.158	0.092584	530.36
107.44080	-222.19	0.21412	0.014177	-28.138	0.092831	535.25
108.44080	-222.45	0.217	0.014368	-28.18	0.093512	540.23
109.44080	-222.59	0.21983	0.014551	-28.205	0.09339	545.22
110.44080	-222.76	0.22276	0.014742	-28.23	0.094107	550.2
111.44080	-222.74	0.22533	0.014912	-28.226	0.093173	555.19
112.44080	-222.78	0.228	0.015087	-28.242	0.09333	559.96
113.44080	-222.69	0.23114	0.015291	-28.227	0.094073	565.02
114.44080	-222.56	0.23399	0.01548	-28.234	0.094271	570.24
115.44080	-222.65	0.2366	0.015651	-28.236	0.094854	575.35
116.44080	-222.75	0.23923	0.015823	-28.259	0.093928	580.28
117.44080	-223.01	0.24161	0.01598	-28.299	0.093971	585.33
118.44080	-223.16	0.24417	0.016148	-28.322	0.093468	590.19
119.44080	-223.24	0.24672	0.016313	-28.325	0.09303	595.12
120.44080	-223.04	0.24945	0.01649	-28.315	0.093647	600.22
121.44080	-223.17	0.25193	0.016654	-28.333	0.092767	605.26
122.44080	-223.13	0.25434	0.016813	-28.338	0.094349	610.19
123.44080	-223.41	0.25667	0.016967	-28.37	0.093615	615.1
124.44080	-223.48	0.2594	0.017144	-28.389	0.094686	620.04
125.44080	-223.57	0.26206	0.017319	-28.4	0.094373	625.15
126.44080	-223.42	0.26411	0.017452	-28.39	0.094509	630.35
127.44080	-223.67	0.26631	0.017596	-28.423	0.09341	635.27
128.44080	-223.57	0.26859	0.017749	-28.414	0.093736	640.26
129.44080	-223.71	0.27127	0.017925	-28.438	0.094271	645.4
130.44080	-223.71	0.27324	0.018053	-28.444	0.094208	650.53
131.44080	-224.04	0.27495	0.018164	-28.482	0.093411	655.47
132.44080	-224.07	0.27669	0.018279	-28.496	0.093573	660.45
133.44080	-224.22	0.27877	0.018416	-28.517	0.093289	665.42
134.44080	-224.09	0.28085	0.018552	-28.506	0.093914	670.46
135.44080	-224.56	0.28277	0.018676	-28.569	0.094135	675.37
136.44080	-224.32	0.28469	0.018801	-28.54	0.093708	680.38
137.44080	-224.42	0.2863	0.018908	-28.556	0.093685	685.35
138.43970	-224.5	0.2879	0.019014	-28.564	0.09427	690.25
139.43970	-224.72	0.28959	0.019123	-28.605	0.094982	695.12
140.43970	-224.72	0.29115	0.019227	-28.605	0.094381	700.06
141.43970	-224.86	0.29273	0.019328	-28.632	0.094083	705.03
142.43970	-224.99	0.29399	0.019409	-28.641	0.09273	709.92
143.43970	-224.94	0.2953	0.019497	-28.642	0.093687	715
143.47770	-224.89	0.29537	0.019501	-28.636	0.093499	715.2
144.47770	-225.26	0.29685	0.019597	-28.68	0.093293	720.25
145.47770	-225.45	0.29762	0.019647	-28.716	0.094279	725.19
146.47770	-226.17	0.29837	0.019693	-28.797	0.094944	730.18
147.47770	-223.72	0.29844	0.019698	-28.494	0.094027	735.01
148.47770	-211.79	0.29857	0.019708	-26.968	0.094185	738.46
149.47770	-199.27	0.29863	0.019713	-25.377	0.093353	739.49
150.47770	-193.25	0.29803	0.019673	-24.604	0.094251	740.2
151.47770	-204.31	0.29815	0.019682	-26.02	0.095344	742.8
152.47770	-223.68	0.30188	0.019924	-28.501	0.09486	751.04
153.47770	-217.86	0.30702	0.02026	-27.762	0.094099	773.98
154.47770	-184.95	0.3009	0.019861	-23.553	0.094005	789.04
155.47770	-178.06	0.28674	0.018937	-22.664	0.094241	790.1
156.47770	-177.94	0.27945	0.018457	-22.627	0.094753	786.36
157.47770	-191.73	0.279	0.018428	-24.387	0.094635	785.95
158.47770	-207.7	0.2799	0.018489	-26.415	0.094586	789.27
159.47770	-215.83	0.28229	0.018647	-27.455	0.094035	794.48
160.47770	-166.25	0.28995	0.019147	-21.16	0.094903	799.75
161.47770	-107.67	0.30068	0.019849	-13.715	0.094458	804.06
162.47770	-105.64	0.30606	0.020201	-13.46	0.095821	808.87
163.47770	-105.39	0.31071	0.020504	-13.429	0.09468	814.13
164.47770	-105.52	0.31527	0.020802	-13.457	0.094659	819.58
165.47770	-105.57	0.3196	0.021085	-13.47	0.094163	824.78
166.47770	-105.61	0.32413	0.02138	-13.479	0.093964	830.17
167.47770	-105.72	0.32843	0.02166	-13.491	0.093824	835.46
168.47770	-105.87	0.33231	0.021914	-13.516	0.094393	840.57
169.47770	-106.02	0.3363	0.022174	-13.539	0.093732	845.6
170.47770	-106.01	0.34024	0.022428	-13.54	0.09418	850.55
171.47770	-106.22	0.34411	0.022681	-13.569	0.0944	855.5
172.47770	-106.19	0.348	0.022933	-13.57	0.094847	860.62
173.47770	-106.39	0.35184	0.023184	-13.595	0.094819	865.59
174.47770	-106.2	0.35571	0.023435	-13.577	0.095231	870.43
175.47770	-106.45	0.35985	0.023705	-13.611	0.094138	875.49
176.47770	-106.26	0.36411	0.023983	-13.591	0.094577	880.68
177.47770	-106.5	0.36786	0.024227	-13.63	0.094682	885.71
178.47770	-106.39	0.37156	0.024468	-13.614	0.094633	890.57
179.39690	-106.5	0.37493	0.024687	-13.64	0.094515	895.18
180.39690	-106.48	0.37862	0.024927	-13.635	0.094176	900.25
181.39690	-106.36	0.3825	0.025181	-13.63	0.093856	905.24
182.39690	-106.35	0.38613	0.025416	-13.625	0.094277	910.2
182.62540	-106.35	0.38693	0.025467	-13.626	0.094623	911.37
183.62540	-106.34	0.3904	0.025694	-13.623	0.094647	916.28
184.62540	-106.59	0.3941	0.025938	-13.658	0.095038	921.25
185.62540	-106.42	0.39812	0.0262	-13.641	0.093429	926.36
186.62540	-106.55	0.40206	0.026453	-13.665	0.09505	931.69
187.62540	-106.54	0.40508	0.026648	-13.667	0.094067	936.63
188.62540	-106.72	0.40803	0.026841	-13.69	0.093851	941.43
189.62540	-106.73	0.41109	0.027039	-13.684	0.093862	946.23
190.62540	-106.9	0.41449	0.027258	-13.718	0.094457	951.22
191.62540	-106.94	0.41801	0.027487	-13.725	0.093993	956.22
192.62540	-106.97	0.42109	0.027687	-13.733	0.094833	961.11
193.62540	-107.09	0.42434	0.027895	-13.746	0.093512	965.9
194.62540	-106.87	0.4281	0.028141	-13.734	0.093932	971.07
195.62540	-106.8	0.43134	0.028351	-13.717	0.093231	976.22
196.62540	-106.88	0.43432	0.028543	-13.728	0.093528	981.2
197.62540	-107.02	0.43726	0.028733	-13.753	0.093046	986.24
198.62540	-106.83	0.44044	0.028938	-13.731	0.09438	991.11
199.62540	-107	0.44352	0.029137	-13.754	0.094725	996.07
200.62540	-106.95	0.44667	0.029341	-13.748	0.094098	1001.1
201.62540	-106.95	0.44994	0.029553	-13.759	0.093282	1006.1
202.62540	-106.98	0.45321	0.029766	-13.759	0.094191	1011.1
203.62540	-106.82	0.45648	0.029977	-13.752	0.094103	1016.1
204.62540	-106.9	0.45963	0.03018	-13.759	0.093347	1021.1
205.62540	-106.67	0.46318	0.030413	-13.733	0.093858	1026.2
206.62540	-106.81	0.46614	0.030606	-13.753	0.09309	1031.3
207.62540	-106.66	0.46929	0.030808	-13.741	0.093291	1036.3
208.62540	-106.79	0.47212	0.030988	-13.759	0.093687	1041.2
209.62540	-106.58	0.4749	0.031169	-13.732	0.093648	1046.1
210.62540	-106.7	0.47774	0.031355	-13.753	0.093087	1051.1
211.62540	-106.65	0.48052	0.031534	-13.747	0.093792	1056.2
212.62540	-106.85	0.4832	0.031707	-13.775	0.093215	1061.2
213.62540	-106.94	0.48533	0.031845	-13.787	0.093727	1066.3
214.62540	-107.13	0.48735	0.031975	-13.814	0.092314	1071.3
215.62540	-107.05	0.48935	0.032104	-13.801	0.092944	1076.3
216.62540	-107.35	0.49085	0.0322	-13.849	0.092564	1081.3
217.62540	-107.67	0.49174	0.032257	-13.88	0.092728	1086.2
218.62540	-107.78	0.49242	0.032302	-13.902	0.09154	1091.2
219.62540	-107.66	0.49273	0.032322	-13.882	0.093007	1096.2
220.33330	-107.36	0.49279	0.032326	-13.851	0.09178	1099.6
221.33330	-106.46	0.49291	0.032333	-13.725	0.092018	1104.6
221.76090	-106.23	0.49301	0.032339	-13.696	0.092592	1106.7
222.76090	-104.88	0.49313	0.032346	-13.531	0.092594	1111.8
223.76090	-103.88	0.49305	0.03234	-13.396	0.092756	1117
224.76090	-101.73	0.49303	0.032337	-13.125	0.091721	1122.1
225.76090	-100.01	0.49305	0.03234	-12.9	0.093295	1127
226.76090	-98.18	0.49294	0.032335	-12.662	0.092145	1131.8
227.76090	-96.939	0.4931	0.032344	-12.5	0.092203	1136.8
228.76090	-95.027	0.49308	0.032343	-12.255	0.091912	1141.8
229.76090	-93.645	0.49309	0.032342	-12.084	0.092037	1146.8
230.76090	-91.83	0.49296	0.032336	-11.839	0.092115	1151.8
231.76090	-90.437	0.49279	0.032325	-11.663	0.09149	1156.7
232.76090	-88.286	0.49281	0.032327	-11.382	0.091168	1161.5
233.76090	-87.184	0.49275	0.032321	-11.246	0.09192	1166.2
234.76090	-86.782	0.49271	0.03232	-11.194	0.091762	1171.4
235.76090	-85.428	0.49258	0.032313	-11.024	0.091509	1176.7
236.76090	-84.397	0.49272	0.032324	-10.881	0.092178	1181.9
237.76090	-83.21	0.49247	0.032305	-10.729	0.091132	1186.8
238.76090	-82.017	0.49237	0.032299	-10.576	0.090581	1191.7
239.76090	-81.339	0.49219	0.032288	-10.497	0.091858	1196.5
240.76090	-79.742	0.49184	0.032265	-10.285	0.091015	1200.9
241.76090	-75.246	0.48953	0.032116	-9.7036	0.091243	1202.5
242.76090	-71.906	0.48799	0.032017	-9.2693	0.091549	1202.2
243.76090	-70.853	0.48681	0.03194	-9.1425	0.091216	1201.4
244.76090	-70.448	0.48596	0.031884	-9.0776	0.091374	1201
245.76090	-70.023	0.48575	0.03187	-9.0325	0.091197	1200.6
246.76090	-69.979	0.48509	0.031829	-9.0163	0.090342	1200.4
247.76090	-69.783	0.48461	0.031797	-8.9997	0.091398	1200.1
248.76090	-69.812	0.48434	0.031777	-8.9983	0.091171	1199.9
249.76090	-68.82	0.48456	0.031791	-8.8692	0.090253	1200
250.76090	-69.788	0.4839	0.031749	-8.9912	0.089989	1200.2
251.76090	-69.569	0.48317	0.031702	-8.9675	0.090882	1200.2
252.76090	-69.5	0.4825	0.03166	-8.9599	0.089957	1200.2
253.76090	-68.958	0.48184	0.031617	-8.8955	0.090831	1200.3
254.76090	-69.292	0.48089	0.031555	-8.9267	0.089915	1200.3
255.76090	-68.854	0.48006	0.031501	-8.874	0.089864	1200.2
256.76090	-68.65	0.47955	0.031472	-8.8431	0.090496	1200.2
257.76090	-68.158	0.47903	0.031437	-8.7896	0.090369	1200.1
258.76090	-68.24	0.47848	0.031399	-8.7938	0.090139	1200.2
259.76090	-68.024	0.47771	0.031349	-8.7659	0.089043	1200.3
260.76090	-67.864	0.47726	0.031323	-8.7399	0.089224	1200.3
261.39110	-67.706	0.47668	0.031287	-8.7244	0.089457	1200.3
262.39110	-67.543	0.47643	0.031272	-8.7012	0.090109	1200.2
262.41640	-67.502	0.47639	0.031269	-8.695	0.090015	1200.2
263.41640	-67.34	0.47558	0.031214	-8.677	0.089602	1200
264.41640	-67.082	0.47521	0.03119	-8.6424	0.089251	1199.9
265.41640	-66.357	0.47517	0.03119	-8.5469	0.088248	1199.9
266.41640	-65.808	0.47543	0.031207	-8.476	0.085846	1199.9
267.41640	-66.453	0.47559	0.031214	-8.5642	0.085065	1200
268.41640	-66.733	0.47555	0.031212	-8.5948	0.08584	1200
269.41640	-66.105	0.47554	0.031211	-8.5131	0.085655	1199.9
270.41640	-65.928	0.47564	0.031219	-8.4894	0.085781	1199.9
271.41640	-65.511	0.47571	0.031223	-8.4371	0.08578	1199.8
272.41640	-65.176	0.47568	0.031221	-8.3939	0.087134	1199.9
273.41640	-65.582	0.47528	0.031193	-8.4552	0.086782	1200.1
274.41640	-65.717	0.47387	0.031101	-8.463	0.08784	1200.3
275.41640	-65.488	0.47198	0.030979	-8.4321	0.088886	1200.3
276.41640	-65.344	0.46985	0.030841	-8.4152	0.087116	1200.2
277.41640	-65.011	0.46838	0.030748	-8.3693	0.086138	1200.1
278.41640	-65.044	0.46665	0.030636	-8.3706	0.087208	1200
279.41640	-64.572	0.46493	0.030524	-8.3085	0.089085	1200.3
280.41640	-64.725	0.46296	0.030396	-8.3347	0.088205	1200.2
281.41640	-64.545	0.46131	0.030289	-8.3067	0.086974	1200.1
282.41640	-64.518	0.46023	0.03022	-8.3106	0.087236	1200.1
283.41640	-64.276	0.45922	0.030159	-8.2695	0.087459	1200
284.41640	-64.299	0.45841	0.030103	-8.2814	0.087052	1200
285.41640	-64.586	0.45748	0.030043	-8.3081	0.086812	1199.9
286.41640	-64.869	0.45626	0.029967	-8.3485	0.08667	1199.9
287.41640	-64.412	0.45604	0.029953	-8.2873	0.085809	1200
288.41640	-64.47	0.45519	0.029897	-8.292	0.084778	1200
289.41640	-65.055	0.45395	0.029813	-8.369	0.086329	1200
290.41640	-64.988	0.45296	0.029752	-8.3573	0.085323	1200
291.41640	-64.917	0.45206	0.029694	-8.3538	0.085747	1200.1
292.41640	-64.862	0.45069	0.029607	-8.3469	0.084479	1200.3
293.41640	-64.75	0.44904	0.029499	-8.3348	0.084264	1200.5
294.41640	-64.882	0.44747	0.029395	-8.3433	0.084749	1200.6
295.41640	-64.742	0.44578	0.029287	-8.329	0.085803	1200.5
296.41640	-64.575	0.44436	0.029194	-8.3005	0.085498	1200.5
297.41640	-64.634	0.44268	0.029086	-8.3088	0.085472	1200.3
298.41640	-64.987	0.44154	0.029009	-8.3565	0.086374	1200.1
299.41640	-64.649	0.44075	0.028961	-8.3042	0.085696	1200.1
300.41640	-64.929	0.43958	0.028883	-8.3497	0.087645	1200.1
301.41640	-64.9	0.439	0.028845	-8.3361	0.087571	1200.2
302.32630	-64.652	0.43832	0.028801	-8.3121	0.087679	1200.4
303.32630	-64.925	0.43713	0.028726	-8.34	0.087306	1200.3
304.32630	-64.61	0.43643	0.028677	-8.3036	0.087675	1200
305.32630	-64.705	0.43633	0.028671	-8.3129	0.087706	1200
306.32630	-64.31	0.43624	0.028667	-8.2628	0.087857	1199.9
306.56530	-64.341	0.43617	0.028662	-8.2667	0.087899	1199.8
307.56530	-63.764	0.43613	0.028662	-8.1989	0.086535	1199.6
308.56530	-64.9	0.43621	0.028664	-8.3363	0.086777	1199.5
309.56530	-65.38	0.43639	0.028677	-8.4	0.087186	1199.6
310.56530	-65.798	0.43665	0.028694	-8.456	0.087288	1199.7
311.56530	-66.086	0.4367	0.028698	-8.4932	0.088239	1199.8
312.56530	-66.102	0.43662	0.028694	-8.4936	0.087039	1200
313.56530	-66.083	0.43682	0.028709	-8.4872	0.088319	1200.1
314.56530	-65.04	0.43697	0.028718	-8.3625	0.089106	1200.1
315.56530	-64.778	0.43698	0.028718	-8.3178	0.088874	1200.2
316.56530	-63.375	0.43709	0.028725	-8.1465	0.089627	1200.4
317.56530	-63.591	0.43653	0.028689	-8.1709	0.089536	1200.3
318.56530	-62.732	0.43536	0.028614	-8.0638	0.089092	1200.1
319.56530	-63.764	0.43289	0.02845	-8.1972	0.09069	1200.1
320.56530	-63.846	0.43052	0.028299	-8.1961	0.090632	1200.2
321.56530	-63.774	0.42735	0.028092	-8.1927	0.090444	1200.3
322.56530	-63.998	0.42431	0.027896	-8.2063	0.090376	1200.4
323.56530	-63.958	0.42276	0.027793	-8.214	0.090238	1200.5
324.56530	-64.309	0.42137	0.027706	-8.2581	0.090538	1200.3
325.56530	-63.27	0.42051	0.027649	-8.1225	0.090102	1200.2
326.56530	-63.652	0.41983	0.027602	-8.1692	0.090998	1200.2
327.56530	-64.087	0.41877	0.027533	-8.2278	0.090186	1200.2
328.56530	-64.35	0.41741	0.027446	-8.2646	0.091098	1199.9
329.56530	-63.897	0.41647	0.027384	-8.1953	0.090685	1199.7
330.56530	-64.488	0.41564	0.027331	-8.2827	0.090299	1199.5
331.56530	-64.309	0.41491	0.027284	-8.2503	0.090641	1199.4
332.56530	-64.079	0.41487	0.02728	-8.2258	0.0903	1199.5
333.56530	-63.251	0.41491	0.027286	-8.1203	0.090644	1199.7
334.56530	-64.409	0.41323	0.027179	-8.2661	0.090748	1199.8
335.56530	-64.71	0.41235	0.027118	-8.3007	0.09038	1200
336.56530	-65.315	0.41116	0.02704	-8.3777	0.089907	1200
337.56530	-65.59	0.40986	0.02696	-8.4155	0.090507	1200.1
338.56530	-65.545	0.40881	0.02689	-8.4039	0.090559	1200.3
339.56530	-65.793	0.40754	0.026809	-8.4448	0.090737	1200.3
340.56530	-65.761	0.40625	0.026724	-8.4344	0.091365	1200.2
341.56530	-65.703	0.40465	0.026619	-8.4257	0.090726	1200.2
342.56530	-65.859	0.40342	0.026542	-8.4494	0.090746	1200.2
343.28120	-65.711	0.40257	0.026488	-8.4278	0.091169	1200.1
344.28120	-65.584	0.40164	0.026426	-8.4145	0.09121	1200
345.28120	-64.873	0.40139	0.026409	-8.3144	0.090805	1200.1
345.61070	-65.222	0.40116	0.026393	-8.3614	0.091164	1200
346.61070	-65.339	0.40029	0.026338	-8.3767	0.091568	1200.1
347.61070	-64.872	0.40021	0.026332	-8.3164	0.090574	1200
348.61070	-64.38	0.40038	0.026341	-8.2575	0.090473	1199.9
349.61070	-63.652	0.40038	0.026343	-8.1663	0.090513	1200.1
350.61070	-65.111	0.39921	0.026266	-8.3439	0.090601	1200
351.61070	-65.376	0.39874	0.026235	-8.382	0.0908	1200
352.61070	-65.822	0.39772	0.02617	-8.4372	0.090168	1199.8
353.61070	-65.517	0.39728	0.026139	-8.3992	0.089816	1199.8
354.61070	-64.904	0.39704	0.026124	-8.3202	0.089938	1200
355.61070	-65.681	0.39552	0.026024	-8.4169	0.08972	1200.3
356.61070	-65.757	0.39407	0.025931	-8.4358	0.089936	1200.4
357.61070	-65.867	0.39317	0.02587	-8.4369	0.091118	1200.2
358.61070	-66.001	0.39214	0.025806	-8.4607	0.089892	1200.1
359.61070	-65.938	0.39141	0.025759	-8.4447	0.089853	1200
360.61070	-65.682	0.39131	0.025754	-8.4168	0.08931	1200.1
361.61070	-65.813	0.39105	0.025736	-8.4323	0.089964	1200.1
362.61070	-65.265	0.391	0.025733	-8.3657	0.089839	1200
363.61070	-65.094	0.39132	0.025755	-8.3397	0.08931	1200
364.61070	-65.152	0.39167	0.02578	-8.3482	0.089662	1200.2
365.61070	-65.639	0.39198	0.025798	-8.4104	0.088523	1200
366.61070	-65.996	0.39214	0.025807	-8.4536	0.087965	1200
367.61070	-66.95	0.39268	0.025843	-8.5811	0.089486	1199.8
368.61070	-68.192	0.39297	0.025864	-8.741	0.089661	1199.7
369.61070	-69.279	0.39324	0.02588	-8.8782	0.089188	1200
370.61070	-69.949	0.39338	0.025889	-8.9599	0.087959	1200
371.61070	-69.894	0.39356	0.0259	-8.9567	0.088942	1200.2
372.61070	-70.045	0.39389	0.025921	-8.9794	0.089292	1200.1
373.61070	-69.877	0.39411	0.025936	-8.9544	0.088481	1200
374.61070	-68.771	0.3943	0.025948	-8.8174	0.088858	1199.8
375.61070	-68.879	0.39441	0.025956	-8.8231	0.088911	1199.6
376.61070	-68.81	0.3945	0.025961	-8.8156	0.088303	1199.6
377.61070	-68.483	0.39463	0.025969	-8.7732	0.089072	1199.9
378.61070	-67.124	0.39477	0.025976	-8.6039	0.088949	1200
379.61070	-65.743	0.39481	0.025978	-8.4248	0.089049	1200
380.61070	-64.233	0.39417	0.025937	-8.2331	0.089307	1199.9
381.61070	-64.031	0.39182	0.025784	-8.2099	0.088759	1200
382.61070	-64.777	0.38858	0.025575	-8.2971	0.088739	1200.3
383.61070	-64.97	0.38569	0.025387	-8.3276	0.088491	1200.5
384.24010	-64.926	0.38367	0.025254	-8.3168	0.088339	1200.6
385.24010	-64.995	0.38151	0.025117	-8.3255	0.088726	1200.4
385.26780	-64.967	0.38144	0.025112	-8.3235	0.088689	1200.5
386.26780	-64.994	0.37936	0.024978	-8.3225	0.0879	1200.3
387.26780	-65.116	0.37741	0.02485	-8.3362	0.088591	1200.6
388.26780	-65.182	0.37533	0.024714	-8.3428	0.087969	1200.5
389.26780	-65.592	0.37365	0.024607	-8.3941	0.087359	1200.3
390.26780	-65.256	0.37319	0.024579	-8.3491	0.0878	1200.2
391.26780	-65.658	0.37293	0.024559	-8.3963	0.087575	1200
392.26780	-65.484	0.37299	0.024561	-8.3763	0.087572	1199.8
393.26780	-66.317	0.37329	0.024583	-8.4843	0.087173	1199.5
394.26780	-67.173	0.37363	0.024605	-8.5975	0.087675	1199.3
395.26780	-66.37	0.37384	0.024619	-8.4979	0.086711	1199.1
396.26780	-66.787	0.37406	0.024633	-8.5457	0.088062	1198.9
397.26780	-68.182	0.37443	0.024658	-8.7227	0.087693	1199.1
398.26780	-68.056	0.37458	0.024667	-8.7127	0.088287	1199.4
399.26780	-67.604	0.37479	0.02468	-8.6484	0.08703	1199.6
400.26780	-67.803	0.37514	0.024701	-8.6839	0.086657	1199.8
401.26780	-67.813	0.37547	0.024723	-8.6772	0.086891	1200.2
402.26780	-66.844	0.37575	0.024742	-8.5614	0.086667	1200.3
403.26780	-66.436	0.37582	0.024746	-8.5046	0.086829	1200.5
404.26780	-65.004	0.37589	0.024752	-8.3197	0.086397	1200.5
405.26780	-64.52	0.37587	0.02475	-8.2604	0.086544	1200.3
406.26780	-64.111	0.37602	0.024757	-8.2047	0.086469	1200.2
407.26780	-66.228	0.37551	0.024724	-8.4779	0.086504	1200.2
408.26780	-65.929	0.37522	0.024705	-8.4385	0.086934	1200.3
409.26780	-66.242	0.37424	0.024641	-8.4805	0.087159	1200.6
410.26780	-66.473	0.37135	0.024454	-8.5014	0.085024	1200.8
411.26780	-66.54	0.36816	0.024247	-8.5176	0.086412	1200.8
412.26780	-66.804	0.36569	0.024088	-8.5438	0.085776	1200.4
413.26780	-66.412	0.36426	0.023994	-8.4984	0.085817	1200.4
414.26780	-66.455	0.363	0.023913	-8.5028	0.08424	1200.5
415.26780	-66.041	0.36209	0.023854	-8.4475	0.085171	1200.5
416.26780	-66.152	0.36112	0.023794	-8.4582	0.084766	1200.5
417.26780	-65.926	0.36022	0.023731	-8.4311	0.085322	1200.6
418.26780	-66.232	0.3588	0.023639	-8.4691	0.086275	1200.6
419.26780	-66.286	0.35689	0.023516	-8.4699	0.084684	1200.3
420.26780	-66.198	0.35535	0.023415	-8.4637	0.084006	1199.9
421.26780	-66.359	0.35003	0.023068	-8.4715	0.085727	1197.5
422.26780	-66.693	0.34343	0.022637	-8.5172	0.083606	1192.5
423.26780	-67.047	0.33805	0.022289	-8.5544	0.084923	1186.8
424.26780	-66.907	0.33281	0.021946	-8.5415	0.084706	1181.3
425.16570	-67.153	0.328	0.021633	-8.5668	0.083525	1176.4
426.16570	-67.022	0.32319	0.021319	-8.5534	0.083068	1171.2
427.16570	-67.082	0.31864	0.02102	-8.5544	0.084634	1166
428.16570	-66.982	0.31349	0.020685	-8.5369	0.084225	1161
429.16570	-67.152	0.30852	0.02036	-8.5608	0.084092	1156
430.16570	-67.112	0.30351	0.020032	-8.5456	0.083929	1151.1
430.40170	-67.216	0.30233	0.019954	-8.5596	0.083349	1149.9
431.40170	-67.222	0.29746	0.019636	-8.5629	0.082862	1144.9
432.40170	-67.353	0.29252	0.019311	-8.5659	0.083007	1140.3
433.40170	-67.325	0.2877	0.018997	-8.5701	0.08326	1135.2
434.40170	-67.373	0.28334	0.018712	-8.5703	0.083611	1130.2
435.40170	-67.3	0.27901	0.018427	-8.5616	0.084133	1125.2
436.40170	-67.583	0.2748	0.018154	-8.5899	0.083132	1120.1
437.40170	-67.364	0.27104	0.017911	-8.5638	0.083812	1115.2
438.40170	-67.34	0.26728	0.017661	-8.5643	0.083918	1110.2
439.40170	-67.3	0.2633	0.0174	-8.5507	0.082992	1105.1
440.40170	-67.221	0.25952	0.017156	-8.5469	0.084288	1100.2
441.40170	-67.115	0.25638	0.016951	-8.5241	0.083703	1095.2
442.40170	-67.071	0.25367	0.016772	-8.519	0.083076	1089.9
443.40170	-67.107	0.25075	0.016579	-8.5206	0.082559	1084.9
444.40170	-66.858	0.2477	0.016381	-8.4929	0.083305	1079.8
445.40170	-67.098	0.24443	0.016167	-8.5149	0.082924	1074.8
446.40170	-66.804	0.24185	0.015997	-8.4803	0.083737	1069.8
447.40170	-67.038	0.23908	0.015814	-8.5062	0.083459	1064.9
448.40170	-66.811	0.23571	0.015592	-8.4762	0.082917	1060.1
449.40170	-67.085	0.23193	0.015345	-8.5084	0.08263	1055
450.40170	-66.984	0.22836	0.01511	-8.4912	0.08212	1050
451.40170	-67.18	0.22471	0.01487	-8.5099	0.082861	1044.9
452.40170	-67.088	0.22067	0.014605	-8.4917	0.082615	1039.9
453.40170	-67.082	0.21701	0.014365	-8.4992	0.084226	1034.8
454.40170	-67.016	0.21318	0.014112	-8.4853	0.08308	1030
455.40170	-67.171	0.20927	0.013854	-8.5087	0.083988	1024.9
456.40170	-67.247	0.20552	0.013609	-8.5125	0.082321	1019.9
457.40170	-67.28	0.20162	0.013352	-8.5174	0.082389	1015
458.40170	-67.407	0.19776	0.013096	-8.5245	0.083905	1010
459.40170	-67.363	0.19391	0.012843	-8.5263	0.083217	1005
460.40170	-67.379	0.19013	0.012593	-8.5168	0.083421	1000.1
461.40170	-67.396	0.18604	0.012324	-8.5254	0.082844	994.99
462.40170	-67.501	0.18197	0.012056	-8.5308	0.083413	989.94
463.40170	-67.61	0.17773	0.011779	-8.5464	0.083142	984.93
464.40170	-67.722	0.17416	0.011543	-8.5534	0.084199	979.89
465.40170	-67.531	0.17036	0.011292	-8.5328	0.083136	974.95
466.19730	-67.795	0.1674	0.011099	-8.5525	0.084651	970.89
467.19730	-67.678	0.16372	0.010859	-8.5473	0.08386	965.76
468.19730	-67.784	0.15988	0.010603	-8.5505	0.083934	960.66
469.19730	-67.812	0.15581	0.010333	-8.5599	0.083346	955.72
469.53070	-67.761	0.15433	0.010237	-8.5511	0.084204	954.05
470.53070	-68.038	0.14946	0.0099176	-8.5797	0.082717	948.94
471.53070	-67.779	0.14404	0.0095602	-8.5436	0.084532	944.1
472.53070	-68.025	0.13866	0.0092035	-8.575	0.084485	939.02
473.53070	-67.826	0.13345	0.0088591	-8.5427	0.08394	934.03
474.53070	-68.041	0.12838	0.0085248	-8.5689	0.084307	929.02
475.53070	-67.999	0.12349	0.0082013	-8.5544	0.083738	924.04
476.53070	-68.149	0.11892	0.0078975	-8.5799	0.083517	919.18
477.53070	-68.091	0.11475	0.007622	-8.5611	0.083751	914.27
478.53070	-68.006	0.11093	0.0073692	-8.5588	0.084408	909.35
479.53070	-67.964	0.10699	0.0071072	-8.5444	0.084826	904.49
480.53070	-68.003	0.10302	0.0068452	-8.5522	0.085212	899.45
481.53070	-68.081	0.099334	0.0066006	-8.5533	0.085329	894.36
482.53070	-67.965	0.09564	0.0063556	-8.5431	0.084288	889.39
483.53070	-68.058	0.092135	0.0061227	-8.5486	0.085263	884.39
484.53070	-67.763	0.088663	0.0058916	-8.5171	0.084947	879.46
485.53070	-67.881	0.085598	0.0056882	-8.528	0.085091	874.4
486.53070	-67.725	0.08276	0.0055004	-8.509	0.085636	869.41
487.53070	-67.812	0.079677	0.0052963	-8.5106	0.085624	864.33
488.53070	-67.526	0.076648	0.005098	-8.4785	0.085284	859.27
489.53070	-67.601	0.073803	0.0049077	-8.4837	0.085565	854.37
490.53070	-67.48	0.070902	0.0047158	-8.4706	0.085686	849.23
491.53070	-67.431	0.067714	0.0045064	-8.4579	0.085648	844.21
492.53070	-67.3	0.064605	0.0043003	-8.4391	0.086181	839.27
493.53070	-67.487	0.0612	0.0040718	-8.4593	0.086121	834.14
494.53070	-67.245	0.057492	0.003825	-8.4326	0.086459	829.17
495.53070	-67.481	0.053574	0.003565	-8.4555	0.086775	824.09
496.53070	-67.418	0.049818	0.0033181	-8.4416	0.086652	819.08
497.53070	-67.501	0.045682	0.0030438	-8.4546	0.08688	814.12
498.53070	-67.39	0.041755	0.0027813	-8.4369	0.087528	809.04
499.53070	-67.507	0.038152	0.0025421	-8.4516	0.087878	804
500.53070	-67.418	0.034274	0.0022846	-8.4352	0.086904	799.1
501.53070	-67.47	0.030438	0.0020297	-8.4455	0.087381	794.01
502.53070	-67.477	0.026393	0.0017605	-8.4393	0.087604	789.1
503.53070	-67.404	0.022325	0.0014885	-8.4328	0.087723	784.09
504.53070	-67.526	0.018251	0.0012172	-8.4368	0.088122	779.06
505.53070	-67.555	0.014225	0.00094824	-8.4475	0.088372	774.08
506.53070	-67.643	0.010178	0.00067697	-8.4474	0.086858	769.06
507.17740	-67.672	0.0076155	0.0005072	-8.4585	0.088018	765.9
508.17740	-67.668	0.0038065	0.00025451	-8.4491	0.088098	760.96
508.60390	-67.76	0.002026	0.00013496	-8.458	0.087808	758.8
509.60390	-67.719	-0.0020809	-0.00014026	-8.4549	0.087988	753.75
510.60390	-67.848	-0.0060748	-0.00040643	-8.4691	0.088902	748.83
511.60390	-67.712	-0.010108	-0.00067625	-8.4491	0.088208	743.81
512.60390	-67.818	-0.014113	-0.00094034	-8.462	0.087642	738.78
513.60390	-67.8	-0.01805	-0.0012067	-8.4559	0.088371	733.81
514.60390	-67.958	-0.022052	-0.0014724	-8.4788	0.088568	728.73
515.60390	-67.865	-0.025844	-0.0017253	-8.4577	0.087842	723.8
516.60390	-67.816	-0.029692	-0.0019823	-8.4578	0.087461	718.86
517.60390	-67.964	-0.033855	-0.0022571	-8.4653	0.08769	713.87
518.60390	-67.933	-0.037981	-0.0025302	-8.4625	0.088572	708.84
519.60390	-68.052	-0.041993	-0.002803	-8.4691	0.088011	703.75
520.60390	-68.395	-0.007165	-0.00047642	-8.5372	0.068619	699.04
521.10000	-68.631	-0.0057766	-0.00038346	-8.5673	0.072845	698.61
526.10000	-79.326	-0.0010783	-6.8764e-05	-9.904	0.046018	699.32
531.10000	-82.177	-0.00041143	-2.6904e-05	-10.259	-0.012116	699.27
536.10000	-86.539	0.0010415	6.8452e-05	-10.804	-0.074468	699.66
541.10000	-87.163	0.0016905	0.00011156	-10.887	-0.13608	700.05
546.10000	-88.127	0.0025881	0.00017328	-11.006	-0.19706	700.17
551.10000	-88.416	0.0036245	0.00024362	-11.042	-0.25922	700.15
556.10000	-89.172	0.0045563	0.00030437	-11.14	-0.32051	700.21
561.10000	-89.695	0.0051002	0.00033972	-11.203	-0.3825	700.06
566.10000	-89.781	0.0054139	0.00035935	-11.217	-0.44404	699.93
571.10000	-90.09	0.0058266	0.00039	-11.253	-0.5059	699.94
576.10000	-91.792	0.007169	0.00047962	-11.468	-0.56755	700.09
581.10000	-94.582	0.009076	0.00060575	-11.817	-0.62954	700.1
586.10000	-89.826	0.010269	0.00068366	-11.226	-0.69167	699.78
591.10000	-84.728	0.01059	0.00070399	-10.589	-0.75363	699.98
596.10000	-80.517	0.010689	0.00071402	-10.062	-0.81481	700.01
601.10000	-75.399	0.010188	0.00068032	-9.4225	-0.87701	699.98
606.10000	-69.375	0.0088355	0.00059015	-8.6679	-0.93878	700.07
611.10000	-66.964	0.0075765	0.00050514	-8.3663	-1.0008	700.03
616.10000	-74.104	0.0085611	0.00056831	-9.2579	-1.0622	700.1
621.10000	-80.139	0.010662	0.00071237	-10.015	-1.1243	699.87
626.10000	-75.376	0.01087	0.00072673	-9.4197	-1.1862	699.89
631.10000	-74.777	0.011062	0.00073848	-9.3428	-1.2474	699.99
636.10000	-77.299	0.011593	0.00077218	-9.6611	-1.309	700.01
641.10000	-80.71	0.01194	0.00079408	-10.087	-1.3709	699.94
646.10000	-83.47	0.012184	0.00081186	-10.433	-1.4316	699.95
651.10000	-86.661	0.012453	0.00083182	-10.829	-1.493	700.05
656.10000	-89.189	0.012832	0.00085666	-11.148	-1.5531	700.12
661.10000	-89.865	0.013721	0.00091371	-11.231	-1.6142	700.11
666.10000	-89.378	0.014572	0.00096856	-11.174	-1.675	699.92
671.10000	-84.132	0.015237	0.0010143	-10.518	-1.7355	700.11
676.10000	-77.996	0.015392	0.0010278	-9.7485	-1.796	699.95
681.10000	-74.283	0.015395	0.0010282	-9.2873	-1.8572	699.82
686.10000	-73.928	0.015377	0.001024	-9.2401	-1.9176	699.92
691.10000	-74.623	0.015522	0.0010328	-9.329	-1.979	699.96
696.10000	-80.134	0.015984	0.0010627	-10.019	-2.04	700.47
701.10000	-87.565	0.015506	0.0010338	-10.948	-2.1009	699.5
706.10000	-89.502	0.013555	0.00090523	-11.188	-2.1616	699.71
711.10000	-86.679	0.011336	0.00075611	-10.833	-2.2225	700.22
716.10000	-82.35	0.0097176	0.00064563	-10.29	-2.2831	700.12
721.10000	-77.701	0.0083699	0.00055631	-9.7102	-2.3452	700.26
726.10000	-85.961	0.0097723	0.00065183	-10.742	-2.4059	700.44
731.10000	-233.81	0.011212	0.00074964	-29.213	-2.4656	700.7
736.10000	-388.15	-0.027546	-0.001837	-48.372	-2.5252	699.9
741.10000	-491.06	-0.077353	-0.0051715	-60.996	-2.5849	699.82
746.10000	-572.07	-0.1275	-0.0085394	-70.818	-2.6464	699.89
751.10000	-645.04	-0.17949	-0.012038	-79.575	-2.7069	699.91
756.10000	-709.84	-0.23258	-0.015626	-87.255	-2.7676	699.92
761.10000	-770.25	-0.28699	-0.019318	-94.334	-2.8295	699.9
766.10000	-822.71	-0.34003	-0.02293	-100.4	-2.8904	699.92
771.10000	-872.67	-0.39353	-0.02659	-106.1	-2.9518	699.98
776.10000	-920.5	-0.44729	-0.030273	-111.51	-3.0127	700.03
781.10000	-964.04	-0.50186	-0.03403	-116.34	-3.0748	700
786.10000	-1006.4	-0.55607	-0.037775	-121	-3.1358	700.01
791.10000	-1041.7	-0.61011	-0.041527	-124.78	-3.1978	699.99
796.10000	-1076	-0.66467	-0.045325	-128.4	-3.2586	699.98
801.10000	-1108.9	-0.72028	-0.049211	-131.81	-3.3206	700.05
806.10000	-1138.5	-0.77563	-0.053094	-134.8	-3.3818	700.12
811.10000	-1164.4	-0.83016	-0.056935	-137.34	-3.4439	700.02
816.10000	-1194	-0.88557	-0.060854	-140.28	-3.5057	700.01
821.10000	-1218.3	-0.94133	-0.064814	-142.57	-3.5674	700
826.10000	-1242	-0.99668	-0.068756	-144.77	-3.6284	699.99
831.10000	-1261.8	-1.0521	-0.072719	-146.5	-3.6904	699.96
836.10000	-1286.2	-1.1066	-0.076634	-148.74	-3.7515	699.98
841.10000	-1301.5	-1.1623	-0.080652	-149.91	-3.8123	700.04
846.10000	-1324.7	-1.2175	-0.084654	-151.98	-3.8737	700.03
851.10000	-1336.4	-1.2729	-0.088676	-152.71	-3.9346	699.95
856.10000	-1354.5	-1.3258	-0.092539	-154.18	-3.9956	700
861.10000	-1375.2	-1.3807	-0.09656	-155.91	-4.0569	699.92
866.10000	-1388.7	-1.4355	-0.10059	-156.8	-4.1173	699.95
871.10000	-1405.9	-1.4904	-0.10465	-158.1	-4.178	699.98
876.10000	-1415.4	-1.5439	-0.10862	-158.54	-4.2386	700.06
881.10000	-1432	-1.5973	-0.1126	-159.76	-4.2988	699.99
886.10000	-1450.2	-1.6523	-0.11671	-161.13	-4.36	700.09
891.10000	-1459.1	-1.7069	-0.1208	-161.45	-4.4203	700.02
896.10000	-1474.9	-1.7625	-0.125	-162.53	-4.4809	699.95
901.10000	-1487.4	-1.8166	-0.1291	-163.23	-4.5422	699.91
906.10000	-1499.9	-1.8715	-0.13326	-163.91	-4.6024	699.89
911.10000	-1515.3	-1.9277	-0.13756	-164.88	-4.6647	699.97
916.10000	-1528.6	-1.983	-0.1418	-165.63	-4.7255	699.98
921.10000	-1535.9	-2.0374	-0.14598	-165.73	-4.787	700
926.10000	-1549.2	-2.0922	-0.15023	-166.45	-4.8484	700.04
931.10000	-1561.8	-2.1477	-0.15452	-167.09	-4.9095	700.08
936.10000	-1576	-2.2047	-0.15897	-167.86	-4.9713	699.99
941.10000	-1580.5	-2.26	-0.1633	-167.61	-5.0323	699.95
946.10000	-1596.1	-2.3145	-0.16759	-168.54	-5.0942	699.92
951.10000	-1606.2	-2.3706	-0.17203	-168.86	-5.156	700.03
956.10000	-1616.2	-2.4267	-0.17648	-169.16	-5.2181	700
961.10000	-1627.4	-2.4821	-0.18089	-169.58	-5.2793	700.02
966.10000	-1631.2	-2.5351	-0.18514	-169.26	-5.3404	700.06
971.10000	-1646.6	-2.5897	-0.18952	-170.1	-5.4025	700
976.10000	-1659.2	-2.6459	-0.19406	-170.62	-5.4647	700.02
981.10000	-1669.3	-2.7012	-0.19855	-170.9	-5.5262	699.99
986.10000	-1673.2	-2.7559	-0.20301	-170.54	-5.5879	700
991.10000	-1685.1	-2.8107	-0.20749	-170.98	-5.6494	700.01
996.10000	-1695.9	-2.8661	-0.21205	-171.3	-5.711	700.01
1001.10000	-1707.4	-2.9222	-0.21669	-171.66	-5.7732	700
1006.10000	-1709.9	-2.9771	-0.22124	-171.12	-5.8339	699.9
1011.10000	-1722.1	-3.0304	-0.22568	-171.58	-5.8957	699.96
1016.10000	-1729.9	-3.0858	-0.23032	-171.56	-5.9573	700.01
1021.10000	-1737.5	-3.1401	-0.23489	-171.53	-6.0179	700.1
1026.10000	-1747.8	-3.1955	-0.23957	-171.75	-6.08	700.03
1031.10000	-1756.8	-3.2486	-0.24408	-171.85	-6.1412	699.94
1036.10000	-1768.5	-3.3047	-0.24886	-172.17	-6.203	700
1041.10000	-1775	-3.3593	-0.25354	-172	-6.264	700.1
1046.10000	-1786.4	-3.4137	-0.25823	-172.29	-6.3253	700.02
1051.10000	-1787.2	-3.4675	-0.26288	-171.56	-6.3868	699.92
1056.10000	-1800	-3.5204	-0.26749	-172	-6.4474	699.92
1061.10000	-1808.9	-3.5747	-0.27222	-172.03	-6.5084	699.91
1066.10000	-1815.8	-3.6288	-0.27696	-171.88	-6.5692	700
1071.10000	-1825.5	-3.6827	-0.28172	-171.97	-6.6302	700.05
1076.10000	-1831.6	-3.7354	-0.28639	-171.74	-6.6907	700.05
1081.10000	-1849.5	-3.7907	-0.29131	-172.57	-6.752	700.02
1086.10000	-1854.7	-3.8463	-0.29628	-172.2	-6.8129	700.01
1091.10000	-1863.6	-3.9	-0.30111	-172.19	-6.8735	699.98
1096.10000	-1865.8	-3.9528	-0.30587	-171.58	-6.9347	699.91
1101.10000	-1878.4	-4.0061	-0.31071	-171.9	-6.9958	700
1106.10000	-1890.3	-4.0605	-0.31567	-172.14	-7.0576	700
1111.10000	-1897.8	-4.1146	-0.32063	-171.96	-7.1189	700
1116.10000	-1905.7	-4.1682	-0.32556	-171.83	-7.1804	700.04
1121.10000	-1917.6	-4.2203	-0.33039	-172.07	-7.2414	699.93
1126.10000	-1926	-4.2743	-0.33541	-171.96	-7.3026	700.11
1131.10000	-1942.1	-4.3289	-0.34052	-172.51	-7.364	700.02
1136.10000	-1952.1	-4.3835	-0.34564	-172.51	-7.426	699.98
1141.10000	-1957.9	-4.4365	-0.35065	-172.16	-7.4879	700.06
1146.10000	-1969	-4.49	-0.35572	-172.26	-7.5492	699.93
1151.10000	-1980.3	-4.5442	-0.3609	-172.36	-7.6109	700.01
1156.10000	-1986.8	-4.5965	-0.36592	-172.06	-7.6716	699.92
1161.10000	-2001.4	-4.6489	-0.37096	-172.45	-7.7345	700
1166.10000	-2011.7	-4.7018	-0.37608	-172.45	-7.7959	699.96
1171.10000	-2025.5	-4.7546	-0.38122	-172.74	-7.8569	699.99
1176.10000	-2034.5	-4.8082	-0.38647	-172.6	-7.9184	700
1181.10000	-2050.1	-4.8618	-0.39174	-173.01	-7.9798	700.01
1186.10000	-2059.8	-4.9141	-0.39692	-172.94	-8.0413	700.02
1191.10000	-2071.4	-4.967	-0.40217	-173	-8.1024	700.04
1196.10000	-2086.6	-5.0207	-0.40754	-173.33	-8.164	699.93
1201.10000	-2153.2	-5.1079	-0.41632	-177.3	-8.2683	699.95
1206.10000	-2141	-5.1671	-0.42232	-175.24	-8.3361	700.12
1211.10000	-2146.2	-5.2211	-0.42783	-174.71	-8.3977	700.05
1216.10000	-2158.2	-5.2744	-0.43329	-174.72	-8.4589	700
1221.10000	-2169.4	-5.3276	-0.43878	-174.67	-8.52	700
1226.10000	-2186.2	-5.3804	-0.44425	-175.06	-8.5812	699.91
1231.10000	-2202.7	-5.4344	-0.44988	-175.39	-8.6433	700
1236.10000	-2215.9	-5.4873	-0.45542	-175.47	-8.704	700.01
1241.10000	-2232.1	-5.5399	-0.46097	-175.78	-8.7646	700.02
1246.10000	-2244.9	-5.5924	-0.46653	-175.8	-8.8256	700.01
1251.10000	-2261.7	-5.6452	-0.47216	-176.12	-8.886	699.93
1256.10000	-2280.5	-5.6985	-0.47788	-176.57	-8.9468	699.96
1261.10000	-2299.2	-5.7513	-0.48358	-177.01	-9.0076	699.98
1266.10000	-2310.3	-5.8036	-0.48924	-176.86	-9.0681	700.03
1271.10000	-2334.5	-5.8553	-0.49488	-177.7	-9.129	700.02
1276.10000	-2355.1	-5.9082	-0.50068	-178.23	-9.1895	699.93
1281.10000	-2379.1	-5.9612	-0.50652	-179	-9.2507	699.99
1286.10000	-2397.3	-6.0138	-0.51236	-179.32	-9.3112	700.07
1291.10000	-2412.4	-6.065	-0.51807	-179.42	-9.3723	700
1296.10000	-2438.5	-6.1178	-0.52399	-180.29	-9.4334	700
1301.10000	-2465.2	-6.1713	-0.53004	-181.17	-9.4951	699.98
1306.10000	-2488.7	-6.2246	-0.53609	-181.79	-9.5564	699.98
1311.10000	-2498.2	-6.2765	-0.54203	-181.41	-9.6175	699.99
1316.10000	-2531.1	-6.3289	-0.54806	-182.7	-9.6788	699.98
1321.10000	-2560.9	-6.3819	-0.55419	-183.71	-9.7402	700.01
1326.10000	-2594.4	-6.4368	-0.56057	-184.94	-9.8024	699.94
1331.10000	-2610.4	-6.489	-0.56669	-184.94	-9.8639	700
1336.10000	-2635.9	-6.5393	-0.57263	-185.64	-9.9255	700.02
1341.10000	-2661.6	-6.5917	-0.57884	-186.29	-9.9865	699.98
1346.10000	-2699.6	-6.6446	-0.58514	-187.76	-10.049	700.02
1351.10000	-2726.9	-6.6975	-0.59149	-188.46	-10.11	699.94
1356.10000	-2748.7	-6.7487	-0.59769	-188.79	-10.172	699.87
1361.10000	-2783.4	-6.8004	-0.60397	-189.98	-10.233	699.99
1366.10000	-2818.1	-6.8531	-0.61042	-191.11	-10.294	700.07
1371.10000	-2857.6	-6.9057	-0.6169	-192.54	-10.356	700.02
1376.10000	-2880.8	-6.9577	-0.62333	-192.86	-10.417	700.17
1381.10000	-2919.9	-7.0085	-0.62967	-194.24	-10.478	699.9
1386.10000	-2958.1	-7.0603	-0.63618	-195.5	-10.539	700.04
1391.10000	-2998.1	-7.1123	-0.64275	-196.85	-10.601	699.97
1396.10000	-3035.2	-7.1642	-0.64935	-197.97	-10.662	700.02
1401.10000	-3065.5	-7.2141	-0.65574	-198.68	-10.723	700.07
1406.10000	-3107.9	-7.2647	-0.66225	-200.12	-10.784	700.06
1411.10000	-3154.9	-7.3155	-0.66885	-201.81	-10.845	700.08
1416.10000	-3193	-7.3674	-0.67562	-202.87	-10.905	699.87
1421.10000	-3232	-7.4187	-0.68236	-203.96	-10.966	699.95
1426.10000	-3277.2	-7.4694	-0.68908	-205.43	-11.026	700.08
1431.10000	-3327.3	-7.52	-0.69581	-207.17	-11.087	700.07
1436.10000	-3375.9	-7.5702	-0.70256	-208.79	-11.147	700.06
1441.10000	-3426.3	-7.6206	-0.70937	-210.46	-11.208	699.92
1446.10000	-3470.5	-7.6689	-0.71593	-211.78	-11.269	699.84
1451.10000	-3522.8	-7.7187	-0.72274	-213.51	-11.329	699.95
1456.10000	-3579	-7.7685	-0.72961	-215.44	-11.39	700.1
1461.10000	-3638.5	-7.8177	-0.73643	-217.53	-11.45	700.11
1466.10000	-3693.7	-7.8662	-0.74321	-219.34	-11.511	699.98
1471.10000	-3765	-7.9158	-0.75018	-222.02	-11.572	699.99
1476.10000	-3828.7	-7.9658	-0.75727	-224.18	-11.633	699.96
1481.10000	-3894.3	-8.0143	-0.76418	-226.45	-11.694	700.1
1486.10000	-3956.8	-8.0633	-0.77123	-228.47	-11.755	699.93
1491.10000	-4023.7	-8.1115	-0.77821	-230.72	-11.816	699.93
1496.10000	-4094	-8.1606	-0.78535	-233.08	-11.877	700.05
1501.10000	-4179.3	-8.2097	-0.79255	-236.23	-11.938	699.99
1506.10000	-4249.5	-8.2569	-0.79953	-238.53	-11.999	700.09
1511.10000	-4319.7	-8.3035	-0.80647	-240.79	-12.061	699.97
1516.10000	-4409.7	-8.3513	-0.81365	-244.05	-12.122	699.97
1521.10000	-4495.2	-8.3998	-0.82096	-246.97	-12.182	700.08
1526.10000	-4578	-8.4489	-0.82842	-249.65	-12.244	700.1
1531.10000	-4652.3	-8.4966	-0.83573	-251.85	-12.305	700.11
1536.10000	-4742.9	-8.544	-0.84304	-254.89	-12.366	699.91
1541.10000	-4827.3	-8.5919	-0.8505	-257.49	-12.426	699.87
1546.10000	-4905	-8.6407	-0.85814	-259.64	-12.487	699.82
1551.10000	-4990.7	-8.6897	-0.86587	-262.15	-12.549	699.97
1556.10000	-5066.3	-8.7357	-0.8732	-264.17	-12.609	699.94
1561.10000	-5168.8	-8.7838	-0.8809	-267.45	-12.671	699.95
1562.56390	-5206.6	-8.8118	-0.88541	-268.2	-12.705	700.13
1563.06390	-5078.3	-8.8159	-0.88607	-261.42	-12.704	670.18
1563.56390	-4888.1	-8.8156	-0.88602	-251.64	-12.697	623.12
1564.06390	-4737	-8.8154	-0.88599	-243.87	-12.691	596.04
1564.56390	-4553	-8.8142	-0.88579	-234.44	-12.683	578.09
1565.06390	-4386.2	-8.8131	-0.88562	-225.89	-12.676	564.67
1565.56390	-4203.9	-8.8118	-0.88541	-216.55	-12.667	555.15
1566.06390	-4070.3	-8.8112	-0.88531	-209.69	-12.661	548.39
1566.56390	-3891.2	-8.81	-0.88512	-200.5	-12.651	543.33
1567.06390	-3741.9	-8.8093	-0.885	-192.83	-12.644	538.65
1567.56390	-3591.3	-8.8089	-0.88494	-185.08	-12.636	534.25
1568.06390	-3422.7	-8.8081	-0.88481	-176.42	-12.627	529.79
1568.56390	-3271.3	-8.8074	-0.8847	-168.63	-12.619	524.57
1569.06390	-3123.2	-8.8063	-0.88452	-161.03	-12.611	518.83
1569.56390	-3002.5	-8.8057	-0.88442	-154.82	-12.604	512.97
1570.06390	-2833.2	-8.8037	-0.88412	-146.13	-12.594	507.08
1570.56390	-2700.1	-8.8024	-0.8839	-139.29	-12.586	501.36
1571.06390	-2546.8	-8.8003	-0.88355	-131.44	-12.578	495.19
1571.56390	-2414	-8.7991	-0.88337	-124.6	-12.569	489.25
1572.06390	-2281.1	-8.7972	-0.88304	-117.78	-12.56	483.3
1572.56390	-2135.7	-8.7949	-0.88268	-110.31	-12.552	477.1
1573.06390	-2012	-8.7932	-0.8824	-103.95	-12.544	471.1
1573.56390	-1895.3	-8.7909	-0.88203	-97.959	-12.537	465.25
1574.06390	-1775.1	-8.7885	-0.88164	-91.78	-12.529	459.49
1574.56390	-1636.5	-8.785	-0.88108	-84.666	-12.519	453.65
1575.06390	-1504.2	-8.7819	-0.88058	-77.86	-12.51	448.09
1575.56390	-1387.5	-8.7788	-0.88008	-71.852	-12.502	442.63
1576.06390	-1273	-8.7755	-0.87956	-65.957	-12.494	437.35
1576.56390	-1161.5	-8.7723	-0.87903	-60.215	-12.485	431.89
1577.06390	-1065.2	-8.7694	-0.87857	-55.248	-12.478	426.9
1577.56390	-951.23	-8.765	-0.87786	-49.369	-12.468	421.69
1578.06390	-840.88	-8.7604	-0.87713	-43.676	-12.458	416.68
1578.56390	-745.95	-8.7559	-0.8764	-38.774	-12.449	411.53
1579.06390	-656.62	-8.7511	-0.87564	-34.154	-12.441	406.58
1579.56390	-565.72	-8.7451	-0.87469	-29.456	-12.431	401.94
1580.06390	-490.02	-8.7411	-0.87405	-25.531	-12.422	397.07
1580.56390	-421.88	-8.7364	-0.87329	-21.995	-12.413	392.26
1581.06390	-352.35	-8.7318	-0.87255	-18.386	-12.404	387.87
1581.56390	-298.71	-8.7275	-0.87187	-15.597	-12.396	383.13
1582.06390	-246.11	-8.7231	-0.87117	-12.859	-12.387	378.61
1582.56390	-200.01	-8.7184	-0.87042	-10.46	-12.378	374.08
1583.06390	-157.79	-8.714	-0.86972	-8.255	-12.369	369.53
1583.56390	-137.16	-8.7119	-0.86938	-7.1796	-12.364	365.16
1584.06390	-101.9	-8.7076	-0.8687	-5.3386	-12.351	360.78
1584.56390	-85.926	-8.706	-0.86844	-4.5005	-12.34	356.37
1585.06390	-78.265	-8.7069	-0.8686	-4.0992	-12.331	352.12
1585.56390	-73.049	-8.7079	-0.86876	-3.8256	-12.319	347.96
1586.06390	-70.193	-8.7083	-0.86882	-3.6775	-12.309	343.85
1586.56390	-68.447	-8.7084	-0.86883	-3.5854	-12.3	339.82
1587.06390	-66.928	-8.7084	-0.86883	-3.505	-12.29	335.95
1587.56390	-65.832	-8.7085	-0.86885	-3.4487	-12.279	332.04
1588.06390	-65.115	-8.7085	-0.86884	-3.4106	-12.27	328.34
1588.56390	-64.543	-8.7086	-0.86887	-3.3792	-12.26	324.56
1589.06390	-63.867	-8.7088	-0.86891	-3.3445	-12.251	320.98
1589.56390	-63.235	-8.7089	-0.86891	-3.3136	-12.24	317.5
1590.06390	-62.794	-8.709	-0.86893	-3.2883	-12.232	313.76
1590.56390	-62.246	-8.7091	-0.86894	-3.2599	-12.223	310.39
1591.06390	-61.803	-8.7092	-0.86897	-3.2387	-12.212	307.05
1591.56390	-61.439	-8.7091	-0.86896	-3.2169	-12.202	303.57
1592.06390	-61.082	-8.7091	-0.86895	-3.1976	-12.192	300.2
1592.56390	-60.825	-8.709	-0.86894	-3.1862	-12.182	296.97
1593.06390	-60.597	-8.709	-0.86894	-3.1763	-12.173	293.77
1593.56390	-60.438	-8.7089	-0.86892	-3.1656	-12.162	290.69
1594.06390	-60.259	-8.7089	-0.86893	-3.1568	-12.154	287.65
1594.56390	-60.045	-8.7089	-0.86893	-3.1439	-12.142	284.48
1595.06390	-59.681	-8.7088	-0.86891	-3.1271	-12.134	281.45
1595.56390	-59.55	-8.7088	-0.86891	-3.119	-12.125	278.48
1596.06390	-59.298	-8.7088	-0.8689	-3.1056	-12.114	275.52
1596.56390	-59.128	-8.7087	-0.86889	-3.0985	-12.105	272.69
1597.06390	-58.976	-8.7085	-0.86886	-3.0901	-12.097	269.88
1597.56390	-58.837	-8.7085	-0.86886	-3.0798	-12.086	266.81
1598.06390	-58.664	-8.7086	-0.86887	-3.0736	-12.077	263.98
1598.56390	-58.512	-8.7084	-0.86884	-3.0675	-12.067	261.26
1599.06390	-58.326	-8.7084	-0.86883	-3.0553	-12.057	258.44
1599.56390	-58.218	-8.7084	-0.86884	-3.0506	-12.047	255.83
1600.06390	-58.197	-8.7084	-0.86883	-3.047	-12.038	253.19
1600.56390	-57.909	-8.7083	-0.86882	-3.0338	-12.027	250.59
1601.06390	-57.84	-8.7082	-0.8688	-3.0291	-12.017	248.05
1601.56390	-57.747	-8.7081	-0.86879	-3.0242	-12.009	245.34
1602.06390	-57.673	-8.7081	-0.86878	-3.0215	-11.999	242.81
1602.56390	-57.555	-8.708	-0.86877	-3.0141	-11.988	240.38
1603.06390	-57.435	-8.7078	-0.86873	-3.0075	-11.978	237.84
1603.56390	-57.359	-8.7079	-0.86874	-3.0023	-11.969	235.47
1604.06390	-57.169	-8.7078	-0.86873	-2.9953	-11.96	232.98
1604.56390	-57.005	-8.7077	-0.86872	-2.9869	-11.95	230.56
1605.06390	-56.93	-8.7074	-0.86867	-2.9816	-11.939	228.15
1605.56390	-56.88	-8.7072	-0.86864	-2.9789	-11.929	225.95
1606.06390	-56.733	-8.7072	-0.86863	-2.9722	-11.92	223.74
1606.56390	-56.605	-8.707	-0.86861	-2.9651	-11.91	221.41
1607.06390	-56.518	-8.707	-0.8686	-2.9601	-11.9	219.11
1607.56390	-56.382	-8.7069	-0.86859	-2.9552	-11.891	217.02
1608.06390	-56.239	-8.7068	-0.86858	-2.9486	-11.881	214.95
1608.56390	-56.162	-8.7067	-0.86856	-2.942	-11.872	212.7
1609.06390	-56.025	-8.7065	-0.86853	-2.9348	-11.863	210.61
1609.56390	-56.04	-8.7064	-0.86851	-2.9378	-11.853	208.71
1610.06390	-55.736	-8.7063	-0.8685	-2.9219	-11.844	206.67
1610.56390	-55.631	-8.7062	-0.86848	-2.9144	-11.833	204.76
1611.06390	-55.628	-8.7061	-0.86846	-2.9151	-11.822	202.7
1611.56390	-55.368	-8.7059	-0.86844	-2.9033	-11.814	200.53
1612.06390	-55.293	-8.7057	-0.86841	-2.9002	-11.805	198.41
1612.56390	-55.128	-8.7055	-0.86838	-2.8881	-11.794	196.74
1613.06390	-55.049	-8.7055	-0.86838	-2.8832	-11.786	194.71
1613.56390	-54.876	-8.7054	-0.86836	-2.8777	-11.774	192.76
1614.06390	-54.662	-8.7053	-0.86834	-2.8658	-11.765	190.94
1614.56390	-54.543	-8.7051	-0.86831	-2.8588	-11.755	189.13
1615.06390	-54.548	-8.705	-0.86831	-2.8584	-11.745	187.3
1615.56390	-54.405	-8.7048	-0.86826	-2.8516	-11.734	185.38
1616.06390	-54.233	-8.7048	-0.86826	-2.8434	-11.724	183.65
1616.56390	-54.054	-8.7046	-0.86824	-2.8339	-11.716	181.76
1617.06390	-53.981	-8.7045	-0.86822	-2.8283	-11.706	180.12
1617.56390	-53.772	-8.7046	-0.86823	-2.8192	-11.697	178.35
1618.06390	-53.619	-8.7044	-0.86821	-2.8112	-11.687	176.61
1618.56390	-53.599	-8.7042	-0.86818	-2.8086	-11.677	174.95
1619.06390	-53.527	-8.7041	-0.86815	-2.8069	-11.666	173.22
1619.56390	-53.321	-8.7039	-0.86812	-2.7973	-11.656	171.48
1620.06390	-53.198	-8.7038	-0.86811	-2.7899	-11.647	169.87
1620.56390	-53.173	-8.7038	-0.86811	-2.7858	-11.638	168.27
1621.06390	-53.027	-8.7035	-0.86807	-2.7789	-11.626	166.46
1621.56390	-52.854	-8.7035	-0.86806	-2.7698	-11.618	165.03
1622.06390	-52.719	-8.7035	-0.86807	-2.7638	-11.608	163.37
1622.56390	-52.709	-8.7035	-0.86807	-2.7609	-11.597	161.85
1623.06390	-52.574	-8.7032	-0.86802	-2.7568	-11.589	160.33
1623.56390	-52.365	-8.7031	-0.86799	-2.7468	-11.579	158.83
1624.06390	-52.341	-8.703	-0.86798	-2.7428	-11.57	157.29
1624.56390	-52.184	-8.7028	-0.86794	-2.7354	-11.561	155.81
1625.06390	-52.044	-8.7027	-0.86793	-2.7289	-11.551	154.41
1625.56390	-52.018	-8.7026	-0.86792	-2.7267	-11.543	153
1626.06390	-51.837	-8.7025	-0.8679	-2.717	-11.532	151.51
1626.56390	-51.703	-8.7024	-0.86789	-2.7117	-11.524	150.04
1627.06390	-51.6	-8.7023	-0.86787	-2.7061	-11.514	148.75
1627.56390	-51.448	-8.7021	-0.86783	-2.6951	-11.504	147.42
1628.06390	-51.407	-8.702	-0.86782	-2.6935	-11.494	146.05
1628.56390	-51.273	-8.702	-0.86781	-2.6881	-11.484	144.7
1629.06390	-51.105	-8.7019	-0.86779	-2.6789	-11.474	143.39
1629.56390	-50.977	-8.7016	-0.86775	-2.6737	-11.464	142.16
1630.06390	-50.962	-8.7016	-0.86776	-2.6725	-11.454	140.91
1630.56390	-50.782	-8.7014	-0.86772	-2.6641	-11.444	139.67
1631.06390	-50.591	-8.7013	-0.86771	-2.6545	-11.434	138.42
1631.56390	-50.606	-8.7013	-0.8677	-2.6525	-11.424	137.21
1632.06390	-50.463	-8.7011	-0.86767	-2.6459	-11.414	136.03
1632.56390	-50.349	-8.701	-0.86765	-2.6425	-11.405	134.78
1633.06390	-50.135	-8.7009	-0.86763	-2.6291	-11.396	133.57
1633.56390	-49.999	-8.7008	-0.86761	-2.6215	-11.386	132.43
1634.06390	-49.874	-8.7006	-0.8676	-2.6169	-11.377	131.35
1634.56390	-49.805	-8.7004	-0.86756	-2.6112	-11.366	130.19
1635.06390	-49.624	-8.7003	-0.86755	-2.6017	-11.357	129.16
1635.56390	-49.611	-8.7004	-0.86755	-2.6011	-11.347	128.08
1636.06390	-49.414	-8.7001	-0.86751	-2.5899	-11.337	126.96
1636.56390	-49.297	-8.6999	-0.86749	-2.5838	-11.329	125.87
1637.06390	-49.163	-8.6998	-0.86747	-2.5791	-11.318	124.85
1637.56390	-48.896	-8.6996	-0.86743	-2.5648	-11.309	123.81
1638.06390	-48.836	-8.6993	-0.86739	-2.5637	-11.298	122.76
1638.56390	-48.698	-8.6991	-0.86735	-2.5557	-11.287	121.79
1639.06390	-48.541	-8.699	-0.86733	-2.5467	-11.28	120.77
1639.56390	-48.547	-8.6989	-0.86733	-2.5458	-11.269	119.77
1640.06390	-48.284	-8.6989	-0.86733	-2.5354	-11.259	118.85
1640.56390	-48.237	-8.6986	-0.86728	-2.5295	-11.25	117.92
1641.06390	-48.135	-8.6986	-0.86728	-2.5258	-11.24	116.94
1641.56390	-47.879	-8.6985	-0.86725	-2.5123	-11.23	116.01
1642.06390	-47.829	-8.6985	-0.86726	-2.5107	-11.221	115.2
1642.56390	-47.685	-8.6984	-0.86724	-2.5	-11.212	114.27
1643.06390	-47.569	-8.6982	-0.86723	-2.4947	-11.202	113.41
1643.56390	-47.394	-8.6981	-0.86721	-2.4875	-11.193	112.5
1644.06390	-47.307	-8.6981	-0.8672	-2.4825	-11.182	111.63
1644.56390	-47.235	-8.6979	-0.86717	-2.4783	-11.172	110.8
1645.06390	-47.123	-8.6978	-0.86716	-2.4727	-11.164	109.75
1645.56390	-46.893	-8.6977	-0.86714	-2.4609	-11.152	109.07
1646.06390	-46.788	-8.6978	-0.86716	-2.4543	-11.144	108.09
1646.56390	-46.736	-8.6978	-0.86716	-2.4514	-11.134	107.49
1647.06390	-46.506	-8.6976	-0.86713	-2.4423	-11.123	106.64
1647.56390	-46.35	-8.6975	-0.86711	-2.4334	-11.113	105.8
1648.06390	-46.221	-8.6973	-0.86708	-2.4241	-11.103	105.01
1648.56390	-46.134	-8.6972	-0.86706	-2.4215	-11.095	104.16
1649.06390	-45.981	-8.6972	-0.86705	-2.4118	-11.084	103.54
1649.56390	-45.692	-8.6971	-0.86705	-2.3981	-11.075	102.57
1650.06390	-45.56	-8.6971	-0.86704	-2.3897	-11.066	102.14
1650.56390	-45.493	-8.6969	-0.867	-2.3867	-11.055	101.33
1651.06390	-45.334	-8.697	-0.86702	-2.379	-11.045	100.53
1651.56390	-45.326	-8.6966	-0.86696	-2.3783	-11.036	99.771
1652.06390	-45.134	-8.6966	-0.86696	-2.3688	-11.027	99.073
1652.56390	-44.997	-8.6965	-0.86695	-2.3635	-11.015	98.37
1653.06390	-44.757	-8.6964	-0.86692	-2.3472	-11.007	97.857
1653.56390	-44.65	-8.6963	-0.86691	-2.3421	-10.998	97.108
1654.06390	-44.58	-8.6963	-0.86692	-2.3386	-10.989	96.366
1654.56390	-44.367	-8.696	-0.86687	-2.3303	-10.977	95.788
1655.06390	-44.108	-8.6957	-0.86681	-2.3139	-10.968	95.086
1655.56390	-44.002	-8.6955	-0.86678	-2.3108	-10.959	94.378
1656.06390	-44.013	-8.6953	-0.86675	-2.3111	-10.949	93.679
1656.56390	-43.751	-8.6952	-0.86674	-2.2961	-10.941	93.183
1657.06390	-43.65	-8.6952	-0.86673	-2.2907	-10.931	92.449
1657.56390	-43.491	-8.6951	-0.86671	-2.2821	-10.922	91.798
1658.06390	-43.335	-8.695	-0.8667	-2.2769	-10.912	91.257
1658.56390	-43.274	-8.6949	-0.86668	-2.2712	-10.904	90.655
1659.06390	-43.105	-8.6949	-0.86669	-2.2617	-10.894	90.068
1659.56390	-42.926	-8.6949	-0.86669	-2.2522	-10.885	89.434
1660.06390	-42.705	-8.6947	-0.86666	-2.2441	-10.874	88.967
1660.56390	-42.584	-8.6946	-0.86665	-2.234	-10.864	88.31
1661.06390	-42.491	-8.6946	-0.86664	-2.2306	-10.854	87.738
1661.56390	-42.303	-8.6945	-0.86662	-2.2201	-10.845	87.215
1662.06390	-42.125	-8.6944	-0.86661	-2.2105	-10.835	86.624
1662.56390	-41.953	-8.6945	-0.86662	-2.2031	-10.825	86.133
1663.06390	-41.896	-8.6943	-0.8666	-2.1993	-10.816	85.605
1663.56390	-41.645	-8.6941	-0.86657	-2.1863	-10.806	85.058
1664.06390	-41.335	-8.6937	-0.86651	-2.1711	-10.795	84.525
1664.56390	-41.107	-8.6934	-0.86646	-2.1576	-10.786	83.998
1665.06390	-40.897	-8.6932	-0.86643	-2.1468	-10.775	83.54
1665.56390	-40.707	-8.6927	-0.86634	-2.1367	-10.766	83.021
1666.06390	-40.487	-8.6925	-0.86631	-2.1249	-10.756	82.497
1666.56390	-40.27	-8.6921	-0.86624	-2.1152	-10.746	82.033
1667.06390	-40.071	-8.6919	-0.86621	-2.1052	-10.737	81.515
1667.56390	-39.868	-8.6916	-0.86618	-2.0935	-10.727	81.065
1668.06390	-39.771	-8.6914	-0.86615	-2.0881	-10.717	80.633
1668.56390	-39.532	-8.6914	-0.86613	-2.0776	-10.708	80.152
1669.06390	-39.211	-8.691	-0.86609	-2.0612	-10.698	79.664
1669.56390	-39.029	-8.6908	-0.86605	-2.0513	-10.688	79.243
1670.06390	-39.095	-8.6907	-0.86603	-2.0507	-10.679	78.692
1670.56390	-38.718	-8.6906	-0.86602	-2.0345	-10.67	78.283
1671.06390	-38.496	-8.6904	-0.86599	-2.0221	-10.659	77.791
1671.56390	-38.28	-8.6902	-0.86596	-2.01	-10.65	77.386
1672.06390	-38.143	-8.6901	-0.86594	-2.0027	-10.641	76.937
1672.56390	-37.973	-8.6899	-0.86591	-1.9945	-10.631	76.579
1673.06390	-37.805	-8.6897	-0.86588	-1.9873	-10.622	76.082
1673.56390	-37.658	-8.6895	-0.86585	-1.978	-10.613	75.682
1674.06390	-37.412	-8.6895	-0.86584	-1.9649	-10.603	75.308
1674.56390	-37.281	-8.6894	-0.86582	-1.9575	-10.593	74.856
1675.06390	-37.11	-8.6892	-0.86579	-1.9496	-10.584	74.378
1675.56390	-36.782	-8.6889	-0.86576	-1.932	-10.573	73.941
1676.06390	-36.523	-8.6884	-0.86566	-1.9209	-10.564	73.697
1676.56390	-36.389	-8.6883	-0.86564	-1.9108	-10.554	73.147
1677.06390	-36.127	-8.6881	-0.86562	-1.8972	-10.544	72.703
1677.56390	-36.011	-8.688	-0.86559	-1.8928	-10.534	72.38
1678.06390	-35.826	-8.6879	-0.86558	-1.885	-10.525	72.024
1678.56390	-35.571	-8.6879	-0.86558	-1.8694	-10.516	71.658
1679.06390	-35.447	-8.6878	-0.86556	-1.8633	-10.505	71.226
1679.56390	-35.399	-8.6876	-0.86553	-1.8593	-10.497	70.822
1680.06390	-35.109	-8.6876	-0.86553	-1.8451	-10.485	70.491
1680.56390	-35.001	-8.6875	-0.86551	-1.8399	-10.475	70.163
1681.06390	-34.92	-8.6873	-0.86549	-1.8357	-10.467	69.757
1681.56390	-34.643	-8.6872	-0.86547	-1.821	-10.457	69.456
1682.06390	-34.478	-8.6871	-0.86544	-1.8123	-10.447	69.069
1682.56390	-34.402	-8.687	-0.86543	-1.8086	-10.438	68.754
1683.06390	-34.184	-8.687	-0.86543	-1.7957	-10.428	68.392
1683.56390	-34.195	-8.6869	-0.86543	-1.7962	-10.419	68.044
1684.06390	-33.957	-8.687	-0.86542	-1.7862	-10.407	67.779
1684.56390	-33.805	-8.6869	-0.86543	-1.7754	-10.399	67.4
1685.06390	-33.653	-8.6867	-0.86539	-1.7684	-10.389	67.073
1685.56390	-33.344	-8.6866	-0.86538	-1.7551	-10.38	66.715
1686.06390	-33.189	-8.6867	-0.86539	-1.7471	-10.371	66.399
1686.56390	-33.063	-8.6865	-0.86535	-1.7386	-10.36	66.091
1687.06390	-32.867	-8.6865	-0.86536	-1.7285	-10.351	65.816
1687.56390	-32.772	-8.6864	-0.86534	-1.725	-10.341	65.47
1688.06390	-32.578	-8.6863	-0.86532	-1.7126	-10.33	65.179
1688.56390	-32.503	-8.6862	-0.86531	-1.709	-10.32	64.921
1689.06390	-32.327	-8.6863	-0.86533	-1.6999	-10.311	64.6
1689.56390	-32.056	-8.6862	-0.86531	-1.6842	-10.302	64.281
1690.06390	-32.081	-8.6861	-0.8653	-1.6854	-10.291	63.986
1690.56390	-31.956	-8.686	-0.86528	-1.6801	-10.283	63.684
1691.06390	-31.681	-8.6859	-0.86527	-1.6683	-10.273	63.521
1691.56390	-31.592	-8.6859	-0.86527	-1.662	-10.263	63.198
1692.06390	-31.49	-8.6857	-0.86523	-1.6553	-10.255	62.996
1692.56390	-31.352	-8.6856	-0.86522	-1.6492	-10.244	62.607
1693.06390	-31.194	-8.6855	-0.86521	-1.6393	-10.236	62.296
1693.56390	-30.967	-8.6856	-0.86521	-1.629	-10.227	61.999
1694.06390	-30.948	-8.6856	-0.86523	-1.6286	-10.216	61.707
1694.56390	-30.811	-8.6853	-0.86519	-1.6202	-10.208	61.537
1695.06390	-30.503	-8.6853	-0.86518	-1.6037	-10.198	61.246
1695.56390	-30.509	-8.6853	-0.86518	-1.6025	-10.188	60.962
1696.06390	-30.362	-8.6852	-0.86516	-1.5963	-10.179	60.67
1696.56390	-30.144	-8.6853	-0.86518	-1.5869	-10.168	60.447
1697.06390	-30.004	-8.6851	-0.86515	-1.5777	-10.158	60.13
1697.56390	-29.9	-8.6851	-0.86515	-1.57	-10.148	59.891
1698.06390	-29.808	-8.6851	-0.86515	-1.566	-10.139	59.697
1698.56390	-29.685	-8.6849	-0.86511	-1.5609	-10.129	59.427
1699.06390	-29.426	-8.6849	-0.86511	-1.5463	-10.12	59.183
1699.56390	-29.31	-8.6848	-0.86509	-1.5423	-10.11	58.959
1700.06390	-29.358	-8.6847	-0.86508	-1.5419	-10.101	58.693
1700.56390	-29.045	-8.6847	-0.86509	-1.5269	-10.09	58.527
1701.06390	-28.896	-8.6846	-0.86508	-1.5207	-10.08	58.247
1701.56390	-28.866	-8.6846	-0.86506	-1.5191	-10.07	57.958
1702.06390	-28.646	-8.6846	-0.86506	-1.5074	-10.059	57.725
1702.56390	-28.558	-8.6845	-0.86505	-1.5017	-10.051	57.582
1703.06390	-28.353	-8.6843	-0.86502	-1.4896	-10.042	57.343
1703.56390	-28.195	-8.6843	-0.86502	-1.484	-10.033	57.148
1704.06390	-28.053	-8.6844	-0.86502	-1.4749	-10.023	56.917
1704.56390	-27.877	-8.6842	-0.86498	-1.4648	-10.012	56.765
1705.06390	-27.765	-8.6841	-0.86498	-1.4606	-10.002	56.539
1705.56390	-27.817	-8.6843	-0.865	-1.4607	-9.9938	56.321
1706.06390	-27.567	-8.684	-0.86496	-1.4501	-9.9843	55.997
1706.56390	-27.491	-8.684	-0.86495	-1.4461	-9.9739	55.854
1707.06390	-27.422	-8.6839	-0.86495	-1.4399	-9.9648	55.67
1707.56390	-27.261	-8.684	-0.86496	-1.4337	-9.9548	55.457
1708.06390	-26.99	-8.684	-0.86497	-1.4215	-9.944	55.206
1708.56390	-26.775	-8.6838	-0.86493	-1.4082	-9.9358	55.015
1709.06390	-26.743	-8.6838	-0.86493	-1.4054	-9.9269	54.837
1709.56390	-26.642	-8.6838	-0.86493	-1.4013	-9.9166	54.55
1710.06390	-26.4	-8.6837	-0.86491	-1.389	-9.9076	54.37
1710.56390	-26.287	-8.6837	-0.86491	-1.3824	-9.8974	54.281
1711.06390	-26.267	-8.6835	-0.86488	-1.3814	-9.887	54.129
1711.56390	-26.013	-8.6834	-0.86486	-1.37	-9.8783	53.858
1712.06390	-25.871	-8.6835	-0.86487	-1.3584	-9.8682	53.615
1712.56390	-25.838	-8.6834	-0.86486	-1.3578	-9.8591	53.395
1713.06390	-25.706	-8.6833	-0.86484	-1.3527	-9.8482	53.226
1713.56390	-25.493	-8.6833	-0.86485	-1.3431	-9.8398	53.083
1714.06390	-25.367	-8.6832	-0.86484	-1.3342	-9.831	52.86
1714.56390	-25.209	-8.6831	-0.86482	-1.3258	-9.819	52.741
1715.06390	-25.095	-8.683	-0.86481	-1.3224	-9.8112	52.453
1715.56390	-24.861	-8.6831	-0.86482	-1.3077	-9.8004	52.345
1716.06390	-24.959	-8.6831	-0.86482	-1.3122	-9.7922	52.163
1716.56390	-24.867	-8.6831	-0.86483	-1.3077	-9.7806	52.023
1717.06390	-24.604	-8.683	-0.86481	-1.2939	-9.7724	51.783
1717.56390	-24.443	-8.6832	-0.86484	-1.2853	-9.7614	51.718
1718.06390	-24.352	-8.683	-0.86481	-1.28	-9.7521	51.582
1718.56390	-24.144	-8.683	-0.8648	-1.2714	-9.7434	51.39
1719.06390	-24.145	-8.6829	-0.86479	-1.2713	-9.732	51.258
1719.56390	-23.822	-8.6827	-0.86477	-1.252	-9.7242	51.009
1720.06390	-23.875	-8.6827	-0.86477	-1.2559	-9.7135	50.897
1720.56390	-23.813	-8.6828	-0.86478	-1.2549	-9.703	50.769
1721.06390	-23.567	-8.6828	-0.86478	-1.2413	-9.6928	50.604
1721.56390	-23.486	-8.6828	-0.86477	-1.2339	-9.6861	50.458
1722.06390	-23.433	-8.6826	-0.86476	-1.2327	-9.6755	50.342
1722.56390	-23.199	-8.6825	-0.86473	-1.2217	-9.6649	50.109
