Time(sec)	Force(kgf)	LGauge(mm)	Strain	Stress(MPa)	Stroke(mm)	TC1(C)
0.00000	-121.74	1.9556e-05	1.0785e-05	-15.193	0.053824	37.726
1.00000	-121.42	-0.00060325	-3.9172e-05	-15.165	0.054935	37.67
2.00000	-121.55	-0.00077559	-5.2152e-05	-15.175	0.056531	37.622
3.00000	-121.52	-0.0009236	-6.1766e-05	-15.174	0.058592	37.435
4.00000	-121.68	-0.0011043	-7.2986e-05	-15.193	0.056662	37.463
5.00000	-121.75	-0.0012679	-8.5889e-05	-15.206	0.054141	37.37
6.00000	-121.9	-0.0014709	-9.7324e-05	-15.222	0.055584	37.306
7.00000	-122.2	-0.0015824	-0.00010579	-15.261	0.060573	37.205
8.00000	-122.64	-0.0013751	-9.2304e-05	-15.309	0.060128	37.227
9.00000	-131.24	-0.001574	-0.00010621	-16.381	0.058259	37.662
10.00000	-146.19	-0.001852	-0.00012522	-18.255	0.063976	41.202
11.00000	-158.51	-0.0013076	-8.92e-05	-19.793	0.06756	48.719
12.00000	-163.84	-0.00033301	-2.4439e-05	-20.464	0.067934	58.002
13.00000	-166.21	-6.2784e-05	-7.4402e-06	-20.76	0.06927	65.659
14.00000	-167.72	-1.5668e-05	-3.3215e-06	-20.942	0.06938	70.146
15.00000	-166.48	0.0012163	7.7359e-05	-20.786	0.069914	72.844
15.53810	-166.35	0.0025028	0.00016445	-20.778	0.069862	74.401
16.53810	-166.78	0.0051958	0.00034624	-20.84	0.068326	78.783
17.53810	-167.52	0.0077254	0.00051706	-20.924	0.069154	84.973
18.53810	-168.21	0.0095897	0.00063749	-21.018	0.067713	91.51
19.53810	-168.82	0.010802	0.0007176	-21.1	0.066111	96.861
20.15480	-169.02	0.011775	0.00078446	-21.122	0.066112	99.419
21.15480	-169.42	0.013738	0.00091722	-21.171	0.063787	103.44
22.15480	-169.65	0.016103	0.0010752	-21.199	0.063378	108.01
23.15480	-169.85	0.018181	0.001212	-21.239	0.063517	113.43
24.15480	-170.17	0.020375	0.0013596	-21.281	0.06125	118.99
25.15480	-170.85	0.022173	0.0014799	-21.364	0.060454	124.29
26.15480	-171.43	0.024048	0.0016031	-21.439	0.059442	129.06
27.15480	-171.38	0.026344	0.0017538	-21.441	0.058709	133.64
28.15480	-171.61	0.028547	0.0019013	-21.462	0.056881	138.42
29.15480	-171.75	0.030909	0.0020571	-21.484	0.055715	143.45
30.15480	-171.81	0.033337	0.002219	-21.499	0.054362	148.77
31.15480	-172.13	0.035402	0.0023563	-21.549	0.0532	153.64
32.15480	-172.33	0.037645	0.0025048	-21.583	0.052615	158.37
33.15480	-172.35	0.040302	0.0026822	-21.576	0.051052	163.19
34.15480	-172.21	0.0434	0.0028873	-21.561	0.049824	168.23
35.15480	-172.33	0.046141	0.0030686	-21.586	0.04865	173.89
36.15480	-172.32	0.048435	0.0032215	-21.588	0.047538	179.57
37.15480	-172.5	0.050273	0.0033453	-21.621	0.046435	184.44
38.15480	-172.85	0.052562	0.003495	-21.665	0.045148	188.97
39.15480	-172.63	0.055458	0.0036874	-21.642	0.044442	193.48
40.15480	-172.7	0.058257	0.0038743	-21.65	0.04394	198.64
41.15480	-172.85	0.06077	0.0040419	-21.663	0.043107	203.88
42.15480	-172.76	0.06346	0.0042201	-21.666	0.042246	208.88
43.15480	-172.7	0.066163	0.0044032	-21.664	0.042322	213.95
44.15480	-172.97	0.068633	0.0045643	-21.706	0.042187	218.89
45.15480	-173.16	0.071126	0.0047301	-21.726	0.04165	223.89
46.15480	-173.28	0.073832	0.0049109	-21.744	0.041506	228.71
47.15480	-173.08	0.076844	0.0051124	-21.716	0.041047	233.5
48.15480	-172.91	0.079668	0.005298	-21.701	0.040469	238.57
49.15480	-173.02	0.082458	0.0054824	-21.721	0.03962	243.77
50.15480	-173.33	0.084891	0.0056451	-21.771	0.040008	248.86
51.15480	-173.39	0.087634	0.0058282	-21.781	0.039499	253.79
52.15480	-173.4	0.090478	0.0060151	-21.783	0.038889	258.85
53.15480	-173.39	0.093317	0.0062034	-21.781	0.038018	263.53
54.15480	-173.46	0.096174	0.0063902	-21.791	0.039249	268.57
55.15480	-173.49	0.099271	0.006596	-21.81	0.039018	273.65
56.15480	-173.51	0.10224	0.0067914	-21.823	0.039132	278.91
56.45490	-173.51	0.10301	0.0068423	-21.818	0.039292	280.61
57.45490	-173.64	0.1057	0.0070195	-21.84	0.038071	285.54
58.45490	-173.95	0.10857	0.0072124	-21.878	0.037994	290.42
59.30140	-173.87	0.11104	0.007375	-21.868	0.037827	294.48
60.30140	-173.81	0.11405	0.0075736	-21.861	0.038305	299.46
61.30140	-173.92	0.11688	0.0077602	-21.88	0.037752	304.51
62.30140	-174.13	0.11967	0.0079442	-21.917	0.038513	309.63
63.30140	-174.26	0.12262	0.0081402	-21.943	0.037678	314.67
64.30140	-174.47	0.12559	0.0083357	-21.972	0.037694	319.67
65.30140	-174.42	0.1285	0.0085275	-21.966	0.037017	324.57
66.30140	-174.23	0.13159	0.0087316	-21.947	0.038344	329.46
67.30140	-174.16	0.13489	0.0089544	-21.945	0.038085	334.45
68.30140	-174.23	0.13812	0.0091665	-21.962	0.037228	339.75
69.30140	-174.54	0.14101	0.0093559	-22	0.036812	344.93
70.30140	-174.65	0.14377	0.0095372	-22.016	0.037396	349.76
71.30140	-174.58	0.14677	0.0097371	-22.013	0.037304	354.59
72.30140	-174.49	0.14995	0.0099478	-22.007	0.037582	359.39
73.30140	-174.58	0.15304	0.010155	-22.024	0.037534	364.56
74.30140	-174.73	0.15615	0.010356	-22.048	0.037614	369.78
75.30140	-174.93	0.15916	0.010555	-22.076	0.037511	374.83
76.30140	-174.96	0.1621	0.010751	-22.081	0.037012	379.84
77.30140	-174.94	0.1652	0.010957	-22.083	0.037667	384.67
78.30140	-175.07	0.16843	0.011167	-22.114	0.037843	389.53
79.30140	-175.15	0.17163	0.011378	-22.128	0.036883	394.46
80.30140	-175.42	0.17481	0.011588	-22.163	0.037852	399.67
81.30140	-175.48	0.17805	0.011799	-22.172	0.037937	404.7
82.30140	-175.51	0.18104	0.011997	-22.177	0.037835	409.75
83.30140	-175.61	0.18392	0.012188	-22.198	0.037649	414.69
84.30140	-175.64	0.18681	0.012378	-22.207	0.037779	419.66
85.30140	-175.75	0.19004	0.01259	-22.221	0.037527	424.58
86.30140	-175.73	0.19333	0.012807	-22.223	0.037678	429.48
87.30140	-175.76	0.19669	0.013027	-22.234	0.037815	434.59
88.30140	-175.75	0.19986	0.013234	-22.238	0.037293	439.69
89.30140	-175.94	0.20284	0.013429	-22.268	0.037687	444.88
90.30140	-176.2	0.20564	0.013614	-22.306	0.03749	449.99
91.30140	-176.35	0.20852	0.013803	-22.326	0.038107	454.82
92.30140	-176.33	0.21156	0.014002	-22.334	0.03744	459.61
93.30140	-176.35	0.21476	0.014216	-22.338	0.037381	464.42
94.30140	-176.56	0.21785	0.014422	-22.364	0.037709	469.45
95.30140	-176.6	0.2209	0.01462	-22.373	0.038215	474.69
96.30140	-176.55	0.22394	0.014819	-22.369	0.037804	479.77
97.30140	-176.53	0.22693	0.015018	-22.374	0.037692	484.78
97.41430	-176.54	0.22727	0.01504	-22.377	0.037152	485.33
98.41430	-176.46	0.23036	0.015246	-22.376	0.037625	490.27
98.44120	-176.5	0.23044	0.015251	-22.379	0.037578	490.4
99.44120	-176.69	0.2335	0.015448	-22.411	0.037694	495.41
100.44120	-176.9	0.23652	0.015644	-22.443	0.037276	500.5
101.44120	-177.08	0.23939	0.015835	-22.461	0.03773	505.46
102.44120	-177.04	0.24229	0.016025	-22.455	0.037479	510.42
103.44120	-177.09	0.24518	0.016214	-22.469	0.037732	515.31
104.44120	-177.07	0.24835	0.016423	-22.48	0.03776	520.26
105.44120	-177.25	0.25114	0.016605	-22.507	0.037517	525.31
106.44120	-177.47	0.25401	0.016791	-22.536	0.037266	530.23
107.44120	-177.43	0.2572	0.017001	-22.531	0.036943	535.19
108.44120	-177.53	0.26042	0.017212	-22.554	0.03787	540.18
109.44120	-177.55	0.26367	0.017426	-22.567	0.037826	545.12
110.44120	-177.79	0.2669	0.017636	-22.604	0.037723	550.23
111.44120	-178.03	0.27004	0.017841	-22.633	0.037442	555.34
112.44120	-178.07	0.2731	0.01804	-22.639	0.036946	560.44
113.44120	-178.04	0.27611	0.018237	-22.639	0.036622	565.35
114.44120	-178.08	0.2793	0.018446	-22.651	0.037741	570.24
115.44120	-178.16	0.28247	0.018655	-22.671	0.038029	575.27
116.44120	-178.35	0.28541	0.018848	-22.698	0.037046	580.22
117.44120	-178.41	0.28856	0.019052	-22.701	0.037999	585.28
118.44120	-178.42	0.29185	0.019269	-22.706	0.037552	590.21
119.44120	-178.35	0.29514	0.019485	-22.705	0.038347	595.25
120.44120	-178.4	0.29842	0.0197	-22.724	0.03836	600.3
121.44120	-178.6	0.30158	0.019906	-22.752	0.038611	605.34
122.44120	-178.71	0.30469	0.02011	-22.764	0.038065	610.56
123.44120	-178.69	0.30754	0.020297	-22.76	0.03871	615.58
124.44120	-178.66	0.31065	0.020503	-22.765	0.038105	620.33
125.44120	-178.74	0.31372	0.0207	-22.782	0.04303	625.1
126.44120	-178.84	0.31699	0.020915	-22.804	0.046455	630.1
127.44120	-179.09	0.31999	0.021113	-22.832	0.044609	635.2
128.44120	-179.03	0.32322	0.021323	-22.829	0.041611	640.29
129.44120	-179.15	0.32632	0.021523	-22.849	0.041683	645.42
130.44120	-179.12	0.3294	0.021723	-22.859	0.043048	650.54
131.44120	-179.31	0.33245	0.021923	-22.888	0.042256	655.43
132.44120	-179.45	0.33547	0.022117	-22.914	0.042858	660.38
133.44120	-179.52	0.33844	0.022311	-22.927	0.043871	665.36
134.44120	-179.47	0.34144	0.022506	-22.919	0.044807	670.28
135.44120	-179.37	0.34459	0.022712	-22.911	0.045892	675.26
136.44120	-179.52	0.34756	0.022905	-22.938	0.046221	680.28
137.44120	-179.73	0.35064	0.023107	-22.968	0.046852	685.42
138.44120	-179.84	0.35342	0.023288	-22.987	0.047316	690.52
138.44270	-179.84	0.35342	0.023287	-22.987	0.047312	690.53
139.44270	-179.9	0.35619	0.023468	-22.996	0.047678	695.55
140.44270	-179.93	0.35898	0.023652	-23.004	0.048828	700.43
141.44270	-179.86	0.36169	0.023827	-22.999	0.050544	705.34
142.44270	-180.22	0.36455	0.024012	-23.054	0.049251	710.2
143.44270	-180.43	0.36738	0.024196	-23.077	0.052215	715.01
144.44270	-180.42	0.37032	0.024387	-23.088	0.051299	719.89
145.44270	-180.45	0.37283	0.024553	-23.091	0.052345	724.88
146.44270	-180.62	0.37516	0.024701	-23.114	0.053795	729.94
147.44270	-181.01	0.37717	0.024832	-23.174	0.053566	735.06
148.44270	-181.29	0.37891	0.024948	-23.21	0.05444	740.14
149.44270	-181.97	0.37991	0.025014	-23.298	0.055932	745.08
150.44270	-179.98	0.38009	0.025026	-23.042	0.055441	749.51
151.44270	-168.5	0.38027	0.025036	-21.57	0.055382	751.32
152.44270	-151.61	0.37979	0.025004	-19.41	0.057425	750.06
153.44270	-149.51	0.37971	0.025003	-19.142	0.057089	750.87
154.44270	-168.51	0.38208	0.025158	-21.579	0.057895	758.34
155.44270	-172.13	0.38259	0.025187	-22.043	0.058502	788.72
156.44270	-143.53	0.37422	0.024643	-18.367	0.05741	801.7
157.44270	-137.75	0.36523	0.024058	-17.615	0.058448	800.73
158.44270	-136.3	0.35827	0.023604	-17.432	0.058872	795.34
159.44270	-142.95	0.35837	0.023612	-18.281	0.059725	793.99
160.44270	-148.08	0.35961	0.023694	-18.933	0.061009	797.62
161.44270	-102.48	0.36774	0.02422	-13.108	0.060972	803.13
162.44270	-101.35	0.37229	0.024516	-12.97	0.061506	809.02
163.44270	-101.72	0.37606	0.024759	-13.022	0.061745	814.6
164.44270	-102.19	0.37951	0.024984	-13.086	0.062101	819.69
165.44270	-102.32	0.38309	0.025216	-13.106	0.062734	824.62
166.44270	-102.26	0.38663	0.025446	-13.098	0.062092	829.53
167.44270	-102.3	0.39009	0.025673	-13.109	0.061846	834.42
168.44270	-102.28	0.39355	0.025899	-13.104	0.0622	839.23
169.44270	-102.26	0.39722	0.026137	-13.108	0.063187	844.38
170.44270	-102.39	0.40056	0.026352	-13.125	0.063095	849.69
171.44270	-102.44	0.40401	0.026579	-13.137	0.063678	854.82
172.44270	-102.58	0.40744	0.026799	-13.16	0.063675	859.81
173.44270	-102.48	0.41105	0.027032	-13.149	0.063499	864.71
174.44270	-102.39	0.41478	0.027276	-13.137	0.063852	869.86
175.44270	-102.42	0.41839	0.027513	-13.146	0.063257	874.97
176.44270	-102.69	0.42172	0.027727	-13.187	0.06367	880.13
177.44270	-102.76	0.42506	0.027946	-13.199	0.060984	885.1
178.44270	-102.84	0.42856	0.028173	-13.205	0.060737	890.03
179.36330	-102.76	0.4319	0.028388	-13.199	0.057767	894.73
180.36330	-102.74	0.43565	0.028631	-13.202	0.060646	899.82
181.36330	-102.78	0.43916	0.028857	-13.218	0.063044	905.02
182.36330	-102.89	0.44292	0.0291	-13.231	0.063551	909.96
183.19890	-102.97	0.44605	0.029304	-13.235	0.062821	914.18
184.19890	-102.87	0.44963	0.029537	-13.228	0.063416	919.23
185.19890	-102.75	0.45305	0.02976	-13.221	0.062849	924.14
186.19890	-102.92	0.45654	0.029983	-13.248	0.063365	929.18
187.19890	-102.98	0.46029	0.030227	-13.252	0.062934	934.29
188.19890	-102.98	0.46379	0.030452	-13.256	0.06346	939.29
189.19890	-102.94	0.46736	0.030684	-13.25	0.062829	944.28
190.19890	-102.93	0.47084	0.030906	-13.249	0.062398	949.54
191.19890	-102.96	0.47398	0.03111	-13.264	0.063474	954.46
192.19890	-102.98	0.47739	0.031329	-13.267	0.06228	959.03
193.19890	-103.05	0.48094	0.031558	-13.275	0.063215	964.1
194.19890	-102.99	0.48423	0.03177	-13.27	0.063869	969.32
195.19890	-102.86	0.48713	0.03196	-13.258	0.062539	974.32
196.19890	-102.92	0.49022	0.032157	-13.273	0.063666	979.27
197.19890	-102.95	0.49301	0.032341	-13.276	0.062465	984.17
198.19890	-103	0.49598	0.03253	-13.287	0.064194	989
199.19890	-102.96	0.49909	0.032731	-13.281	0.062388	994.04
200.19890	-102.86	0.50185	0.032912	-13.268	0.063211	999.27
201.19890	-102.98	0.50448	0.033085	-13.291	0.062801	1004.5
202.19890	-103.23	0.5067	0.033224	-13.328	0.066085	1009.8
203.19890	-103.25	0.50911	0.033381	-13.333	0.06717	1014.8
204.19890	-103.25	0.51123	0.033519	-13.33	0.06841	1020
205.19890	-103.48	0.51289	0.033626	-13.356	0.067641	1024.8
206.19890	-103.71	0.51416	0.033707	-13.394	0.068634	1029.6
207.19890	-103.67	0.51553	0.033791	-13.395	0.068767	1034.6
208.19890	-103.92	0.51629	0.033841	-13.425	0.06746	1039.4
209.19890	-105.13	0.51664	0.033863	-13.576	0.068185	1044.1
210.19890	-104.29	0.51729	0.033905	-13.467	0.067362	1049.2
211.19890	-104.84	0.51746	0.033916	-13.54	0.068759	1054
212.19890	-105.5	0.51758	0.033922	-13.629	0.067407	1058.9
213.19890	-105.4	0.51762	0.033923	-13.616	0.066376	1064.2
214.19890	-104.55	0.51761	0.033922	-13.503	0.067092	1069.1
215.19890	-104.09	0.51761	0.033924	-13.444	0.066543	1074.1
216.19890	-103.03	0.51761	0.033922	-13.309	0.069689	1079.1
217.19890	-101.8	0.51753	0.033917	-13.153	0.069451	1083.9
218.19890	-101.16	0.51745	0.033912	-13.075	0.070451	1089
219.19890	-100.08	0.5174	0.033908	-12.93	0.069886	1094.2
220.19890	-98.598	0.51724	0.033899	-12.736	0.069856	1099.4
220.31110	-98.451	0.51722	0.033898	-12.721	0.069402	1099.9
221.31110	-96.717	0.51702	0.033885	-12.49	0.068419	1104.9
222.31110	-95.25	0.51685	0.033873	-12.307	0.069129	1109.8
222.33870	-95.203	0.51685	0.033874	-12.299	0.069167	1109.9
223.33870	-93.748	0.51683	0.033874	-12.111	0.068611	1114.8
224.33870	-92.45	0.51677	0.033868	-11.947	0.06782	1119.8
225.33870	-90.929	0.51665	0.033863	-11.745	0.066825	1124.8
226.33870	-89.643	0.51646	0.03385	-11.578	0.066518	1129.9
227.33870	-87.82	0.51625	0.033837	-11.341	0.068819	1135
228.33870	-86.423	0.5159	0.033813	-11.166	0.070879	1139.7
229.33870	-85.451	0.51592	0.033816	-11.042	0.071811	1144.7
230.33870	-84.181	0.51573	0.033804	-10.874	0.070823	1149.5
231.33870	-83.067	0.51549	0.03379	-10.726	0.069991	1154.2
232.33870	-82.28	0.51534	0.033779	-10.627	0.069967	1159
233.33870	-81.698	0.51521	0.033771	-10.549	0.070189	1164.1
234.33870	-80.42	0.51502	0.03376	-10.389	0.070247	1169
235.33870	-79.91	0.51495	0.033758	-10.323	0.06921	1174
236.33870	-79.107	0.51474	0.033743	-10.221	0.070324	1179.2
237.33870	-78.421	0.5146	0.033733	-10.124	0.069139	1184.2
238.33870	-77.698	0.51455	0.033728	-10.034	0.069158	1189.5
239.33870	-76.869	0.51447	0.033722	-9.9295	0.069844	1194.9
240.33870	-75.569	0.5142	0.033703	-9.7644	0.071082	1200
241.33870	-71.949	0.5124	0.033588	-9.296	0.071807	1202.6
242.33870	-68.429	0.51073	0.033483	-8.8346	0.072731	1202.4
243.33870	-66.394	0.50968	0.033415	-8.5704	0.071537	1201.5
244.33870	-65.366	0.50907	0.033373	-8.4398	0.072642	1200.8
245.33870	-65.024	0.50887	0.033358	-8.3971	0.07113	1200.5
246.33870	-64.141	0.5087	0.033349	-8.2873	0.070324	1200.3
247.33870	-64.415	0.50804	0.033308	-8.3209	0.070842	1200.1
248.33870	-64.036	0.50765	0.033283	-8.267	0.071143	1200.1
249.33870	-63.828	0.50774	0.033287	-8.2394	0.070724	1200
250.33870	-64.058	0.50778	0.033291	-8.2717	0.070142	1199.6
251.33870	-64.442	0.50753	0.033278	-8.3211	0.070602	1199.4
252.33870	-64.454	0.5075	0.033276	-8.3201	0.070095	1199.4
253.33870	-63.801	0.5076	0.03328	-8.2345	0.070836	1199.6
254.33870	-62.943	0.50733	0.033264	-8.1262	0.071731	1199.8
255.33870	-62.938	0.50621	0.033192	-8.125	0.072662	1200.1
256.33870	-63.138	0.50439	0.033074	-8.1465	0.073725	1200.1
257.33870	-62.931	0.50285	0.032975	-8.119	0.072615	1199.8
258.33870	-62.519	0.5012	0.03287	-8.0716	0.072063	1199.8
259.33870	-62.489	0.49971	0.032771	-8.0667	0.072229	1200.1
260.33870	-62.067	0.49821	0.032674	-8.0084	0.07221	1200.5
261.33870	-61.936	0.49592	0.032528	-7.9872	0.072276	1200.6
261.35580	-61.905	0.49589	0.032525	-7.9836	0.072303	1200.6
262.35580	-61.403	0.4936	0.032379	-7.9151	0.072234	1200.5
263.35580	-61.058	0.49164	0.03225	-7.874	0.072151	1200.4
264.35580	-60.352	0.4904	0.032169	-7.7878	0.072044	1200.3
265.35580	-60.189	0.48905	0.032082	-7.7649	0.070982	1200.2
266.35580	-59.684	0.48781	0.032004	-7.6962	0.072216	1200.1
267.35580	-59.49	0.48678	0.031935	-7.6699	0.073093	1200.1
268.35580	-59.492	0.4862	0.031897	-7.6677	0.074514	1200.2
269.35580	-58.231	0.48617	0.031896	-7.509	0.073707	1200.3
270.35580	-58.988	0.48538	0.031847	-7.6089	0.074635	1200.4
271.35580	-59.101	0.48472	0.031801	-7.6261	0.074612	1200.6
272.35580	-59.774	0.48477	0.031804	-7.7067	0.073473	1200.9
273.35580	-60.473	0.4852	0.031832	-7.7974	0.073385	1200.9
274.35580	-60.05	0.48521	0.031837	-7.7379	0.073497	1200.6
275.35580	-59.934	0.48516	0.03183	-7.7263	0.072583	1200.2
276.35580	-59.94	0.48545	0.031847	-7.7335	0.073418	1199.9
277.35580	-59.935	0.48537	0.031846	-7.7278	0.072753	1200
278.35580	-60.407	0.4844	0.03179	-7.7864	0.072624	1200
279.35580	-60.261	0.48333	0.031713	-7.7642	0.072975	1200.2
280.35580	-59.955	0.48275	0.031675	-7.7314	0.074919	1200.2
281.35580	-58.855	0.48265	0.031672	-7.5829	0.075569	1200.4
282.35580	-59.102	0.48163	0.03161	-7.6134	0.075375	1200.6
283.35580	-59.433	0.48061	0.031539	-7.6577	0.075203	1200.5
284.35580	-59.761	0.47997	0.031496	-7.7034	0.07479	1200.5
285.35580	-59.219	0.47981	0.031488	-7.6318	0.074805	1200.3
286.35580	-59.166	0.47909	0.031444	-7.6186	0.073635	1200.1
287.35580	-59.653	0.47813	0.031378	-7.6827	0.074042	1200.1
288.35580	-59.596	0.47779	0.031354	-7.6792	0.074329	1200
289.35580	-59.709	0.47678	0.031293	-7.6985	0.073935	1199.9
290.35580	-58.854	0.476	0.031241	-7.5826	0.072703	1199.7
291.35580	-59.123	0.47537	0.031197	-7.6175	0.072807	1199.7
292.35580	-59.298	0.47479	0.031161	-7.6377	0.074881	1199.7
293.35580	-59.244	0.47386	0.031105	-7.6254	0.077032	1199.7
294.35580	-58.943	0.47332	0.031066	-7.5909	0.078222	1199.9
295.35580	-57.786	0.4733	0.031063	-7.4464	0.078365	1200.1
296.35580	-59.136	0.47214	0.030988	-7.6251	0.076741	1200.3
297.35580	-59.298	0.47099	0.030919	-7.6358	0.076626	1200.2
298.35580	-58.407	0.47059	0.030891	-7.5212	0.076109	1200.2
299.35580	-57.805	0.47054	0.030884	-7.4459	0.075174	1200.4
300.35580	-58.5	0.46979	0.030836	-7.5366	0.074148	1200.4
301.35580	-59.141	0.46884	0.030776	-7.6191	0.073721	1200.5
302.28970	-58.517	0.46872	0.030772	-7.5348	0.0742	1200.5
303.28970	-58.679	0.46824	0.030742	-7.5525	0.07409	1200.5
304.28970	-59.146	0.46688	0.030656	-7.6132	0.073444	1200.5
305.28970	-60.233	0.46551	0.030565	-7.757	0.073733	1200.1
306.28970	-59.723	0.4652	0.030544	-7.6948	0.077564	1200
307.12740	-59.323	0.46505	0.030535	-7.638	0.078614	1199.9
308.12740	-58.97	0.46497	0.03053	-7.5851	0.075251	1199.8
309.12740	-58.378	0.46481	0.030517	-7.507	0.07506	1199.8
310.12740	-59.501	0.46387	0.030456	-7.6582	0.074429	1199.9
311.12740	-59.403	0.46315	0.03041	-7.65	0.072887	1199.9
312.12740	-58.617	0.46287	0.030391	-7.5436	0.071448	1199.8
313.12740	-60.287	0.46107	0.030273	-7.7601	0.07169	1199.9
314.12740	-59.401	0.46065	0.030245	-7.6432	0.073511	1199.8
315.12740	-60.36	0.4595	0.030171	-7.7669	0.076333	1199.6
316.12740	-59.79	0.45925	0.030154	-7.6974	0.07663	1199.7
317.12740	-59.191	0.45914	0.030147	-7.6196	0.07649	1199.9
318.12740	-59.522	0.45908	0.030144	-7.6615	0.075757	1199.8
319.12740	-60.983	0.45924	0.030157	-7.8419	0.075863	1199.7
320.12740	-61.637	0.45935	0.030163	-7.9333	0.075056	1199.8
321.12740	-61.596	0.45936	0.030165	-7.9293	0.073854	1199.9
322.12740	-61.459	0.4594	0.030168	-7.9113	0.072958	1199.9
323.12740	-60.993	0.45934	0.030164	-7.8539	0.072957	1199.9
324.12740	-60.747	0.45944	0.030171	-7.8192	0.073478	1199.9
325.12740	-60.9	0.45954	0.030178	-7.8383	0.073194	1200.1
326.12740	-61.312	0.45943	0.03017	-7.8906	0.075129	1200.2
327.12740	-60.848	0.45921	0.030156	-7.8297	0.075089	1200
328.12740	-60.145	0.45895	0.030142	-7.7405	0.073263	1200
329.12740	-59.646	0.45879	0.030132	-7.6736	0.072255	1200
330.12740	-58.891	0.45859	0.030116	-7.5732	0.073243	1200
331.12740	-58.227	0.45858	0.030113	-7.4926	0.074174	1199.9
332.12740	-57.792	0.45856	0.030112	-7.441	0.07379	1199.8
333.12740	-57.622	0.45853	0.030112	-7.4202	0.073701	1199.7
334.12740	-57.229	0.45867	0.030121	-7.3702	0.074171	1199.6
335.12740	-56.624	0.4587	0.03012	-7.2889	0.07442	1199.5
336.12740	-57.633	0.45861	0.030115	-7.4134	0.074482	1199.5
337.12740	-57.315	0.4587	0.030123	-7.3725	0.074382	1199.8
338.12740	-56.563	0.45864	0.030122	-7.2795	0.074319	1200
339.12740	-56.112	0.45844	0.030107	-7.2237	0.07404	1200
340.12740	-58.549	0.45745	0.030043	-7.5327	0.07409	1200.1
341.12740	-58.255	0.45729	0.03003	-7.4936	0.073741	1200.3
342.12740	-57.162	0.45731	0.030029	-7.3526	0.073761	1200.3
343.12740	-58.285	0.45666	0.029987	-7.5013	0.073059	1200.5
343.23300	-58.271	0.45663	0.029986	-7.4986	0.072559	1200.5
344.23300	-58.629	0.45619	0.029956	-7.5463	0.074043	1200.4
345.23300	-57.97	0.45603	0.029948	-7.4633	0.073133	1200.5
346.17080	-57.173	0.45585	0.029939	-7.3604	0.073543	1200.5
347.17080	-59.316	0.45444	0.029848	-7.6302	0.072551	1200.5
348.17080	-58.404	0.45417	0.029829	-7.5111	0.07296	1200.4
349.17080	-59.023	0.4537	0.029796	-7.5935	0.072524	1200.3
350.17080	-59.979	0.45358	0.029786	-7.7196	0.073076	1200.3
351.17080	-62.16	0.45393	0.029811	-8.0009	0.072331	1200.6
352.17080	-63.431	0.45416	0.029827	-8.1643	0.072376	1200.5
353.17080	-63.683	0.45405	0.029822	-8.1909	0.073148	1200.4
354.17080	-62.608	0.45386	0.02981	-8.0448	0.07262	1200.4
355.17080	-61.554	0.45401	0.02982	-7.9201	0.072946	1200
356.17080	-60.877	0.45416	0.029827	-7.8303	0.072479	1199.7
357.17080	-59.868	0.45369	0.0298	-7.7026	0.072871	1199.8
358.17080	-59.427	0.45303	0.029758	-7.6383	0.073051	1199.8
359.17080	-61.081	0.45184	0.029679	-7.8555	0.072439	1200
360.17080	-60.151	0.45174	0.029672	-7.7383	0.073208	1199.9
361.17080	-59.424	0.45137	0.029652	-7.6424	0.073087	1199.9
362.17080	-59.154	0.45084	0.029616	-7.6119	0.074109	1200
363.17080	-60.908	0.44997	0.029555	-7.8355	0.072697	1200
364.17080	-62.329	0.44995	0.029556	-8.0137	0.072676	1200.1
365.17080	-62.473	0.44964	0.029539	-8.035	0.072209	1200
366.17080	-61.724	0.44896	0.029492	-7.9325	0.071871	1199.8
367.17080	-60.221	0.44852	0.029462	-7.7429	0.073497	1199.6
368.17080	-58.961	0.44815	0.029437	-7.5839	0.07405	1199.4
369.17080	-58.254	0.44749	0.029398	-7.4964	0.075272	1199.4
370.17080	-58.376	0.44686	0.029357	-7.5055	0.075837	1199.6
371.17080	-59.02	0.44578	0.029285	-7.5867	0.076565	1199.7
372.17080	-58.453	0.44544	0.029259	-7.5111	0.07656	1199.6
373.17080	-58.195	0.44547	0.029263	-7.484	0.076129	1199.8
374.17080	-57.656	0.44525	0.02925	-7.4168	0.075738	1199.9
375.17080	-57.023	0.44492	0.029232	-7.3318	0.075012	1199.9
376.17080	-56.744	0.44468	0.029215	-7.2973	0.074712	1199.9
377.17080	-58.003	0.44428	0.029186	-7.4621	0.0745	1200
378.17080	-57.885	0.44432	0.029188	-7.4462	0.075959	1200.2
379.17080	-58.105	0.44456	0.029205	-7.4693	0.075573	1200.2
380.17080	-58.854	0.4446	0.02921	-7.5717	0.076062	1200.1
381.17080	-59.719	0.44461	0.029212	-7.6829	0.076283	1199.9
382.17080	-60.37	0.44463	0.029214	-7.7646	0.075822	1199.8
383.17080	-60.141	0.44465	0.029214	-7.7292	0.077258	1199.9
384.17080	-60.063	0.44469	0.029218	-7.7189	0.076455	1199.9
384.19890	-60.069	0.4447	0.029218	-7.7186	0.076516	1200
385.19890	-59.493	0.44485	0.029228	-7.651	0.075251	1199.8
386.19890	-58.692	0.44515	0.029244	-7.5528	0.075222	1199.8
387.19890	-58.793	0.44525	0.029252	-7.5635	0.075239	1199.8
388.19890	-58.607	0.44516	0.029245	-7.5342	0.075336	1199.8
389.19890	-58.184	0.44502	0.029236	-7.4784	0.075023	1199.7
390.19890	-57.835	0.44472	0.02922	-7.4336	0.075407	1199.8
391.19890	-56.829	0.44439	0.029198	-7.3121	0.074882	1199.8
392.19890	-58.548	0.44321	0.029121	-7.5284	0.075143	1199.9
393.19890	-57.602	0.44272	0.029088	-7.4106	0.074468	1200.3
394.19890	-58.761	0.44189	0.029032	-7.5504	0.075019	1200.6
395.19890	-58.904	0.44108	0.028979	-7.5731	0.074358	1200.8
396.19890	-58.568	0.44129	0.028992	-7.5313	0.074496	1200.9
397.19890	-59.216	0.44152	0.029006	-7.6169	0.077398	1201.1
398.19890	-59.731	0.44147	0.029007	-7.6843	0.077724	1201.1
399.19890	-59.462	0.44124	0.028991	-7.6454	0.0793	1200.9
400.19890	-60.854	0.44024	0.028926	-7.8213	0.07865	1200.5
401.19890	-61.481	0.43962	0.028882	-7.9034	0.077682	1200.1
402.19890	-60.94	0.43952	0.028879	-7.8369	0.078304	1199.8
403.19890	-62.03	0.43825	0.028798	-7.9778	0.077689	1199.6
404.19890	-62.147	0.43685	0.028708	-7.9895	0.076886	1199.6
405.19890	-62.535	0.43502	0.028589	-8.0351	0.077349	1199.6
406.19890	-62.007	0.43392	0.028518	-7.9626	0.077174	1199.7
407.19890	-62.376	0.43241	0.028421	-8.0128	0.077932	1199.8
408.19890	-62.263	0.43091	0.028324	-7.9995	0.079943	1199.9
409.19890	-62.079	0.42964	0.028241	-7.9756	0.078854	1200
410.19890	-62.086	0.42828	0.028152	-7.979	0.077154	1200.1
411.19890	-62.294	0.4271	0.028077	-7.9975	0.077255	1200.1
412.19890	-61.786	0.42582	0.027996	-7.9284	0.078005	1200
413.19890	-62.531	0.4242	0.027887	-8.0303	0.079093	1200
414.19890	-61.502	0.42391	0.02787	-7.8935	0.07904	1200.1
415.19890	-62.27	0.42269	0.027793	-8.0018	0.078773	1200.2
416.19890	-61.76	0.42203	0.027749	-7.9318	0.07899	1200.3
417.19890	-61.076	0.42206	0.027748	-7.8416	0.080239	1200.3
418.19890	-62.154	0.42112	0.02769	-7.9782	0.079247	1200.4
419.19890	-62.339	0.42002	0.027617	-7.9997	0.08013	1200.3
420.19890	-61.044	0.19533	0.012846	-7.7263	0.052811	1200.2
421.10000	-61.491	-0.0025681	-0.0001546	-7.655	0.076346	1200
421.10500	-63.555	0.00011045	2.5096e-06	-7.945	0.078464	1200.1
421.11000	-62.464	-0.0023383	-0.00018373	-7.8564	0.07427	1200.1
421.11500	-62.675	-0.00081445	-6.1636e-05	-7.7852	0.058535	1200.1
421.12000	-62.028	-0.0026051	-0.00016103	-7.6437	0.02091	1200.1
421.12500	-63.609	0.00021883	2.3936e-05	-7.9937	-0.033468	1200
421.13000	-63.706	-0.0020908	-0.00015759	-8.0541	-0.1034	1200
421.13500	-64.032	-0.00080599	-7.1902e-05	-7.9371	-0.16902	1200
421.14000	-62.548	-0.002941	-0.00019945	-7.619	-0.22195	1199.9
421.14500	-60.918	-0.00032074	-1.1173e-05	-7.6444	-0.27549	1199.9
421.15000	-60.849	-0.0027507	-0.00017735	-7.7669	-0.32471	1200
421.15500	-65.994	-0.0016548	-0.00010638	-8.3826	-0.38692	1200
421.16000	-67.39	-0.0035241	-0.00023536	-8.3733	-0.44465	1200
421.16500	-69.863	-0.00064488	-3.7396e-05	-8.6267	-0.50236	1200
421.17000	-64.136	-0.0030539	-0.00018011	-7.9515	-0.56136	1200
421.17500	-62.732	-0.0018993	-0.00012867	-7.8118	-0.62066	1200
421.18000	-62.556	-0.0035704	-0.00024526	-7.6898	-0.68315	1200
421.18500	-64.333	-0.0010431	-5.7247e-05	-8.0037	-0.73417	1200
421.19000	-62.238	-0.0034943	-0.00022202	-7.8764	-0.78688	1199.9
421.19500	-64.167	-0.0024605	-0.00016954	-8.1046	-0.84885	1200
421.20000	-68.872	-0.0041507	-0.00028851	-8.6136	-0.90949	1200
421.20500	-70.298	-0.001241	-9.9549e-05	-8.7974	-0.9698	1200
421.21000	-66.562	-0.0035676	-0.00024558	-8.2633	-1.0275	1200
421.21500	-63.745	-0.0022558	-0.00012965	-7.919	-1.0842	1199.9
421.22000	-63.54	-0.0041434	-0.00029067	-7.961	-1.1412	1199.9
421.22500	-64.415	-0.0014524	-9.5652e-05	-8.0694	-1.1979	1199.9
421.23000	-62.538	-0.0037677	-0.00024893	-7.8255	-1.2541	1200
421.23500	-63.755	-0.002835	-0.00018795	-8.0463	-1.3122	1200
421.24000	-67.182	-0.0046914	-0.00030472	-8.5102	-1.372	1200
421.24500	-71.915	-0.0018816	-0.0001344	-8.9628	-1.4278	1200
421.25000	-67.159	-0.0039906	-0.00027954	-8.3096	-1.4861	1200
421.25500	-64.526	-0.0027256	-0.00017245	-7.9948	-1.558	1200.1
421.26000	-63.431	-0.0044118	-0.00029844	-7.9906	-1.6136	1200.1
421.26500	-65.005	-0.0014827	-0.00010527	-8.161	-1.6615	1200
421.27000	-64.477	-0.0042729	-0.00029793	-8.1053	-1.7178	1199.9
421.27500	-64.39	-0.0032596	-0.0002153	-8.1234	-1.7763	1199.9
421.28000	-68.628	-0.0052202	-0.00034428	-8.5318	-1.8349	1199.9
421.28500	-125.43	-0.0024471	-0.00017431	-15.607	-1.8852	1200
421.29000	-202.72	-0.025286	-0.0016577	-25.256	-1.9408	1200
421.29500	-238.57	-0.072732	-0.0048269	-29.676	-1.9985	1200.2
421.30000	-259.85	-0.12079	-0.0080645	-32.267	-2.0481	1200.5
421.30500	-281.77	-0.16456	-0.010962	-34.681	-2.1064	1200.4
421.31000	-294.89	-0.21946	-0.014713	-36.098	-2.1658	1200.3
421.31500	-301.69	-0.27245	-0.018295	-36.895	-2.2275	1200.4
421.32000	-313.82	-0.32849	-0.022105	-38.362	-2.2877	1200.6
421.32501	-330.26	-0.38158	-0.025723	-40.248	-2.3518	1200.7
421.33001	-338.73	-0.43807	-0.029581	-41.175	-2.4139	1200.8
421.33501	-350.31	-0.48407	-0.032775	-42.439	-2.4671	1200.9
421.34001	-367.32	-0.53482	-0.036278	-44.153	-2.5238	1201
421.34501	-376.69	-0.58023	-0.039399	-45.094	-2.5759	1201
421.35001	-391.36	-0.63793	-0.043392	-46.688	-2.6386	1201
421.35501	-392.32	-0.69395	-0.047315	-46.583	-2.7021	1201.1
421.36001	-395.84	-0.75122	-0.051352	-46.969	-2.7622	1201.1
421.36501	-403.99	-0.7929	-0.054273	-47.832	-2.8128	1201.2
421.37001	-420.7	-0.84685	-0.058068	-49.649	-2.872	1201.2
421.37501	-429.93	-0.89706	-0.061606	-50.581	-2.9302	1201.3
421.38001	-443.23	-0.94909	-0.065321	-51.847	-2.9857	1201.5
421.38501	-453.36	-0.99273	-0.068445	-52.73	-3.0385	1201.6
421.39001	-454.44	-1.0461	-0.072255	-52.657	-3.0938	1201.6
421.39501	-459.48	-1.0981	-0.075968	-53.063	-3.1533	1201.7
421.40001	-464.02	-1.1525	-0.079903	-53.427	-3.2129	1201.7
421.40501	-471.53	-1.1977	-0.08317	-54.236	-3.2676	1201.7
421.41001	-481.05	-1.2507	-0.087038	-55.221	-3.3237	1201.7
421.41501	-498.58	-1.3021	-0.090741	-57.007	-3.383	1201.8
421.42001	-509.08	-1.3605	-0.095033	-57.805	-3.4451	1201.9
421.42501	-517.5	-1.4077	-0.098501	-58.482	-3.503	1202
421.43001	-520.83	-1.4641	-0.10267	-58.509	-3.5631	1202.1
421.43501	-514.7	-1.5167	-0.10656	-57.658	-3.6211	1202.2
421.44001	-518.12	-1.5664	-0.11025	-57.902	-3.6743	1202.3
421.44501	-532.26	-1.6145	-0.11382	-59.358	-3.733	1202.3
421.45001	-542.93	-1.6737	-0.11827	-60.372	-3.7954	1202.4
421.45501	-546.2	-1.7258	-0.12219	-60.453	-3.8534	1202.5
421.46001	-551.21	-1.7736	-0.12579	-60.736	-3.9033	1202.7
421.46501	-569.89	-1.8167	-0.12903	-62.45	-3.9568	1202.8
421.47001	-571.62	-1.8779	-0.13373	-62.307	-4.0228	1202.9
421.47501	-564.49	-1.9296	-0.13766	-61.288	-4.0833	1202.9
421.48001	-561.81	-1.9809	-0.14159	-60.861	-4.1355	1202.9
421.48501	-567.24	-2.0242	-0.14492	-61.348	-4.1873	1203
421.49001	-582.38	-2.0772	-0.149	-62.789	-4.2449	1203
421.49501	-585.9	-2.1316	-0.15322	-62.907	-4.3087	1203.1
421.50001	-592.64	-2.1814	-0.15712	-63.329	-4.3601	1203.1
421.50501	-600.76	-2.2245	-0.16049	-63.789	-4.4133	1203.2
421.51001	-602.94	-2.279	-0.16471	-63.688	-4.4697	1203.3
421.51501	-598.48	-2.33	-0.16876	-62.997	-4.5298	1203.3
421.52001	-595.36	-2.3862	-0.17321	-62.467	-4.5895	1203.3
421.52501	-599.01	-2.4323	-0.17687	-62.718	-4.6454	1203.3
421.53001	-607.57	-2.4877	-0.1813	-63.409	-4.7052	1203.2
421.53501	-609.22	-2.5383	-0.18534	-63.32	-4.7624	1203.2
421.54001	-616.34	-2.5895	-0.18947	-63.728	-4.8177	1203.2
421.54501	-629.75	-2.6371	-0.19331	-64.731	-4.8758	1203.3
421.55001	-630.2	-2.6975	-0.19819	-64.394	-4.9409	1203.4
421.55501	-615.09	-2.7511	-0.20256	-62.602	-5.001	1203.4
421.56001	-613.93	-2.8031	-0.20682	-62.28	-5.0545	1203.4
421.56501	-610.8	-2.8473	-0.21045	-61.833	-5.1081	1203.4
421.57001	-624.42	-2.9014	-0.21491	-63	-5.1683	1203.4
421.57501	-623.71	-2.9551	-0.21934	-62.692	-5.2303	1203.4
421.58001	-623.48	-3.0023	-0.2233	-62.352	-5.2786	1203.4
421.58501	-637.68	-3.0459	-0.22694	-63.389	-5.3321	1203.4
421.59001	-636.33	-3.1031	-0.23176	-62.889	-5.397	1203.5
421.59501	-625.66	-3.1533	-0.23596	-61.563	-5.4529	1203.6
421.60001	-620.03	-3.2058	-0.24039	-60.794	-5.5075	1203.6
421.60501	-625.9	-3.2525	-0.24435	-61.225	-5.5639	1203.6
421.61001	-630.78	-3.3136	-0.24959	-61.508	-5.6302	1203.6
421.61501	-628.92	-3.3629	-0.25379	-61.046	-5.6871	1203.6
421.62001	-634.12	-3.4125	-0.25808	-61.277	-5.7402	1203.7
421.62501	-643.91	-3.4554	-0.26177	-61.866	-5.7916	1203.7
421.63001	-655.25	-3.5177	-0.26719	-62.525	-5.8612	1203.7
421.63501	-641.39	-3.5745	-0.27216	-60.908	-5.9265	1203.7
421.64001	-627.93	-3.6283	-0.27687	-59.411	-5.9834	1203.7
421.64501	-631.19	-3.6693	-0.28048	-59.527	-6.0318	1203.7
421.65001	-633.46	-3.7227	-0.2852	-59.562	-6.0882	1203.7
421.65501	-643.21	-3.7728	-0.28965	-60.238	-6.1493	1203.7
421.66001	-646.91	-3.8277	-0.29457	-60.276	-6.2048	1203.7
421.66501	-654.15	-3.87	-0.29834	-60.569	-6.2561	1203.7
421.67001	-665.08	-3.9276	-0.3035	-61.212	-6.3181	1203.7
421.67501	-648.43	-3.9826	-0.30852	-59.353	-6.379	1203.6
421.68001	-644.89	-4.0341	-0.31321	-58.76	-6.4361	1203.6
421.68501	-647.02	-4.0806	-0.31747	-58.808	-6.4913	1203.5
421.69001	-650.86	-4.1353	-0.32244	-58.939	-6.5494	1203.5
421.69501	-650.6	-4.1821	-0.3268	-58.743	-6.6037	1203.5
421.70001	-662.21	-4.2319	-0.3314	-59.495	-6.6572	1203.5
421.70501	-675.62	-4.2816	-0.33603	-60.307	-6.7178	1203.5
421.71001	-677.07	-4.3396	-0.34148	-59.966	-6.776	1203.4
421.71501	-671.34	-4.3901	-0.34619	-59.139	-6.8356	1203.4
421.72001	-666.68	-4.4456	-0.35144	-58.489	-6.8913	1203.4
421.72501	-666.61	-4.4913	-0.3558	-58.282	-6.9471	1203.3
421.73001	-668.89	-4.5451	-0.36091	-58.301	-7.0039	1203.2
421.73501	-680.51	-4.5943	-0.36562	-59.059	-7.0629	1203.1
421.74001	-689.63	-4.6509	-0.37108	-59.504	-7.1218	1203.1
421.74501	-703.28	-4.6994	-0.37579	-60.339	-7.1793	1203.1
421.75001	-707.83	-4.7606	-0.38174	-60.255	-7.2459	1203.2
421.75501	-702.74	-4.8106	-0.38665	-59.457	-7.3036	1203.2
421.76002	-687.58	-4.8645	-0.39196	-57.915	-7.3577	1203.2
421.76502	-688.56	-4.9031	-0.39575	-57.892	-7.4036	1203.1
421.77002	-698.41	-4.9518	-0.40062	-58.489	-7.4544	1203.1
421.77502	-713.46	-5.0042	-0.40583	-59.479	-7.5178	1203
421.78002	-725.82	-5.0628	-0.41169	-60.149	-7.5803	1203
421.78502	-739.18	-5.1133	-0.4168	-60.852	-7.6399	1202.9
421.79002	-736.48	-5.1684	-0.42239	-60.193	-7.6964	1202.8
421.79502	-734.38	-5.2159	-0.42724	-59.669	-7.7535	1202.7
421.80002	-730.42	-5.2704	-0.43282	-59.078	-7.8115	1202.7
421.80502	-731.86	-5.3122	-0.43711	-58.971	-7.862	1202.7
421.81002	-741.59	-5.3668	-0.44276	-59.553	-7.9203	1202.6
421.81502	-752.12	-5.4178	-0.44809	-60.105	-7.9789	1202.6
421.82002	-768.33	-5.4771	-0.45429	-61.055	-8.0432	1202.6
421.82502	-780.29	-5.5242	-0.45923	-61.588	-8.0993	1202.5
421.83002	-784.27	-5.5805	-0.46518	-61.372	-8.1587	1202.4
421.83502	-775.25	-5.6272	-0.47017	-60.355	-8.2125	1202.4
421.84002	-768.64	-5.6761	-0.47543	-59.608	-8.2622	1202.3
421.84502	-783.31	-5.7199	-0.48011	-60.476	-8.3185	1202.2
421.85002	-793.87	-5.7772	-0.4863	-60.892	-8.3818	1202.2
421.85502	-800.12	-5.8259	-0.49159	-61.201	-8.4382	1202.1
421.86002	-808.66	-5.8801	-0.49754	-61.614	-8.4953	1202
421.86502	-826.06	-5.9243	-0.50241	-62.459	-8.5489	1202
421.87002	-843.68	-5.9786	-0.50839	-63.105	-8.6076	1202
421.87502	-852.47	-6.0336	-0.51449	-63.47	-8.6716	1202
421.88002	-840.43	-6.0933	-0.52116	-62.382	-8.7338	1201.9
421.88502	-834.08	-6.1351	-0.52591	-61.552	-8.7827	1201.8
421.89002	-845.95	-6.1827	-0.53128	-61.962	-8.8361	1201.7
421.89502	-864.41	-6.23	-0.53664	-63.198	-8.8941	1201.7
421.90002	-875.53	-6.2886	-0.5433	-63.78	-8.9551	1201.6
421.90502	-906.5	-6.3346	-0.54862	-65.466	-9.0128	1201.6
421.91002	-923.77	-6.3951	-0.55567	-65.912	-9.0757	1201.5
421.91502	-906.07	-6.444	-0.56135	-64.408	-9.1343	1201.5
421.92002	-889.24	-6.4879	-0.5665	-63.1	-9.1811	1201.4
421.92502	-916.71	-6.5317	-0.57166	-64.57	-9.2343	1201.4
421.93002	-945.2	-6.5878	-0.57832	-66.024	-9.2966	1201.3
421.93502	-941.92	-6.6388	-0.58439	-65.675	-9.3554	1201.3
421.94002	-943.33	-6.6891	-0.59042	-65.575	-9.4097	1201.2
421.94502	-983.9	-6.7319	-0.59553	-67.79	-9.4625	1201.1
421.95002	-1012.4	-6.7893	-0.60253	-69.014	-9.5232	1200.9
421.95502	-1009.5	-6.8429	-0.6091	-68.417	-9.5868	1200.8
421.96002	-988.21	-6.8943	-0.61548	-66.693	-9.6414	1200.8
421.96502	-1018	-6.9366	-0.62064	-68.26	-9.6958	1200.7
421.97002	-1053.9	-6.9984	-0.62828	-70.178	-9.7632	1200.7
421.97502	-1046.8	-7.0488	-0.63466	-69.406	-9.8204	1200.6
421.98002	-1050.7	-7.0996	-0.64107	-69.3	-9.8736	1200.5
421.98502	-1081.5	-7.1399	-0.64615	-70.825	-9.9256	1200.3
421.99002	-1119.7	-7.1903	-0.65264	-72.687	-9.9805	1200.2
421.99502	-1119.3	-7.2412	-0.65913	-72.152	-10.039	1200.1
422.00002	-1111.2	-7.2933	-0.66592	-71.155	-10.095	1200
422.00502	-1130.2	-7.3368	-0.67154	-72.023	-10.147	1199.9
422.01002	-1171.4	-7.393	-0.67892	-74.225	-10.208	1199.8
422.01502	-1167.2	-7.4414	-0.68529	-73.549	-10.268	1199.7
422.02002	-1186.7	-7.492	-0.69203	-74.235	-10.319	1199.7
422.02502	-1233.3	-7.5388	-0.69825	-76.68	-10.378	1199.6
422.03002	-1277.7	-7.5955	-0.70591	-78.751	-10.434	1199.5
422.03502	-1286.1	-7.6489	-0.71311	-78.589	-10.503	1199.3
422.04002	-1269.8	-7.7034	-0.72057	-76.933	-10.557	1199.1
422.04502	-1291.9	-7.7426	-0.72597	-77.947	-10.609	1199
422.05002	-1333.7	-7.795	-0.73325	-80.031	-10.667	1198.8
422.05502	-1353.3	-7.8442	-0.74006	-80.709	-10.725	1198.7
422.06002	-1382.7	-7.9021	-0.74816	-81.765	-10.79	1198.7
422.06502	-1420.2	-7.9453	-0.75426	-83.488	-10.84	1198.6
422.07002	-1460.8	-7.9989	-0.76195	-85.155	-10.895	1198.6
422.07502	-1476.7	-8.0453	-0.76855	-85.36	-10.952	1198.5
422.08002	-1494.5	-8.0981	-0.77621	-85.606	-11.01	1198.4
422.08502	-1528.9	-8.1485	-0.78349	-87.108	-11.071	1198.1
422.09002	-1549	-8.2017	-0.79137	-87.708	-11.122	1197.9
422.09502	-1580.5	-8.2467	-0.79794	-88.941	-11.181	1197.7
422.10002	-1613.5	-8.2994	-0.80581	-90.104	-11.238	1197.6
422.10502	-1676.5	-8.344	-0.8124	-92.988	-11.295	1197.5
422.11002	-1738	-8.3987	-0.82076	-95.508	-11.355	1197.4
422.11502	-1782.7	-8.4552	-0.82931	-97	-11.42	1197.3
422.12002	-1787.8	-8.5138	-0.83837	-96.333	-11.484	1197.2
422.12502	-1792.4	-8.5533	-0.84438	-96.079	-11.532	1197.1
422.13002	-1833.3	-8.5965	-0.85117	-97.722	-11.579	1196.9
422.13502	-1893	-8.6461	-0.8589	-100.21	-11.638	1196.8
422.14002	-1936.3	-8.6991	-0.86739	-101.68	-11.698	1196.7
422.14502	-1990.6	-8.7429	-0.87425	-103.77	-11.751	1196.5
422.15002	-2032.6	-8.794	-0.88246	-105.02	-11.805	1196.4
422.15502	-1990.1	-8.8333	-0.88883	-102.09	-11.846	1195.6
422.15520	-1987.2	-8.8344	-0.889	-101.92	-11.847	1195.6
422.65520	-837.27	-8.9372	-0.90588	-42.305	-11.913	1103.4
423.15520	-591.35	-8.9424	-0.90673	-29.821	-11.907	1002.7
423.65520	-473.5	-8.9394	-0.90626	-23.889	-11.899	935.95
424.15520	-383.61	-8.936	-0.90569	-19.366	-11.891	890.63
424.65520	-305.9	-8.9324	-0.9051	-15.451	-11.884	866.33
425.15520	-245.78	-8.9301	-0.90471	-12.42	-11.879	848.91
425.65520	-187.2	-8.9279	-0.90434	-9.4636	-11.872	835.23
426.15520	-135.04	-8.9263	-0.90408	-6.8288	-11.864	824.07
426.65520	-98.913	-8.9263	-0.90408	-4.9996	-11.857	814.11
427.15520	-80.199	-8.9281	-0.90439	-4.0553	-11.851	804.55
427.65520	-69.338	-8.9317	-0.90498	-3.5045	-11.843	794.33
428.15520	-61.646	-8.935	-0.90551	-3.1133	-11.836	783.4
428.65520	-56.954	-8.9368	-0.90582	-2.8751	-11.83	771.27
429.15520	-53.923	-8.9382	-0.90605	-2.7212	-11.823	759.5
429.65520	-51.975	-8.9392	-0.90621	-2.622	-11.815	747.65
430.15520	-51.029	-8.94	-0.90635	-2.5748	-11.808	735.45
430.65520	-50.634	-8.9407	-0.90646	-2.5561	-11.8	723.97
431.15520	-50.418	-8.9413	-0.90656	-2.5413	-11.792	712.95
431.65520	-50.346	-8.9418	-0.90663	-2.5406	-11.785	701.57
432.15520	-50.528	-8.9423	-0.90671	-2.548	-11.777	690.63
432.65520	-50.501	-8.9425	-0.90675	-2.5458	-11.769	678.9
433.15520	-50.408	-8.9427	-0.90678	-2.5425	-11.761	666.83
433.65520	-50.59	-8.9428	-0.90681	-2.5489	-11.755	655.93
434.15520	-50.494	-8.9429	-0.90682	-2.55	-11.748	644.29
434.65520	-50.43	-8.9433	-0.90687	-2.5419	-11.74	633.64
435.15520	-50.58	-8.9434	-0.9069	-2.5506	-11.734	622.92
435.65520	-50.423	-8.9437	-0.90694	-2.5425	-11.726	612.82
436.15520	-50.647	-8.9438	-0.90697	-2.5534	-11.718	602.89
436.65520	-50.507	-8.944	-0.90699	-2.5489	-11.712	593.63
437.15520	-50.567	-8.9443	-0.90704	-2.5469	-11.704	584.53
437.65520	-50.51	-8.9444	-0.90707	-2.549	-11.697	575.54
438.15520	-50.499	-8.9446	-0.9071	-2.5442	-11.69	566.99
438.65520	-50.628	-8.9449	-0.90714	-2.5512	-11.683	558.57
439.15520	-50.505	-8.945	-0.90716	-2.5458	-11.677	550.38
439.65520	-50.653	-8.9451	-0.90718	-2.5534	-11.669	542.47
440.15520	-50.548	-8.9454	-0.90722	-2.5508	-11.664	534.79
440.65520	-50.647	-8.9455	-0.90725	-2.5505	-11.656	527.46
441.15520	-50.72	-8.9457	-0.90728	-2.559	-11.65	520.35
441.65520	-50.636	-8.9459	-0.90731	-2.5532	-11.643	513.76
442.15520	-50.8	-8.946	-0.90733	-2.5588	-11.635	507.33
442.65520	-50.655	-8.9461	-0.90734	-2.5534	-11.627	500.81
443.15520	-50.654	-8.9463	-0.90737	-2.553	-11.621	494.53
443.65520	-50.858	-8.9463	-0.90738	-2.5641	-11.612	488.4
444.15520	-50.862	-8.9466	-0.90743	-2.562	-11.605	482.32
444.65520	-50.849	-8.9467	-0.90744	-2.5626	-11.598	476.65
445.15520	-50.736	-8.9468	-0.90746	-2.5566	-11.591	471.29
445.65520	-50.996	-8.9469	-0.90748	-2.57	-11.585	465.71
446.15520	-50.933	-8.9471	-0.90751	-2.5681	-11.576	460.25
446.65520	-50.98	-8.9473	-0.90755	-2.5677	-11.57	455.29
447.15520	-51.052	-8.9474	-0.90756	-2.5743	-11.562	450.4
447.65520	-50.941	-8.9475	-0.90758	-2.5651	-11.554	445.42
448.15520	-51.078	-8.9476	-0.9076	-2.5724	-11.549	440.6
448.65520	-51.009	-8.9477	-0.90761	-2.5709	-11.539	435.98
449.15520	-51.132	-8.948	-0.90767	-2.5741	-11.534	431.56
449.65520	-51.098	-8.948	-0.90767	-2.5764	-11.525	427.19
450.15520	-51.18	-8.9482	-0.9077	-2.5772	-11.518	422.95
450.65520	-51.318	-8.9482	-0.9077	-2.5862	-11.511	419.25
451.15520	-51.187	-8.9484	-0.90773	-2.58	-11.505	415.21
451.65520	-51.381	-8.9485	-0.90775	-2.5891	-11.497	411.51
452.15520	-51.264	-8.9486	-0.90776	-2.5847	-11.49	407.69
452.65520	-51.351	-8.9487	-0.90779	-2.5883	-11.483	404.29
453.15520	-51.406	-8.9488	-0.9078	-2.5916	-11.476	400.65
453.65520	-51.433	-8.9489	-0.90781	-2.5898	-11.47	397.3
454.15520	-51.541	-8.949	-0.90783	-2.5978	-11.461	394.23
454.65520	-51.371	-8.949	-0.90783	-2.5913	-11.454	390.8
455.15520	-51.651	-8.9493	-0.90787	-2.6003	-11.447	387.62
455.65520	-51.504	-8.9493	-0.90788	-2.5973	-11.44	384.52
456.15520	-51.459	-8.9494	-0.90789	-2.5901	-11.432	381.33
456.65520	-51.514	-8.9496	-0.90792	-2.5957	-11.425	378.26
457.15520	-51.454	-8.9496	-0.90792	-2.5934	-11.417	375.06
457.65520	-51.676	-8.9497	-0.90793	-2.6023	-11.409	371.79
458.15520	-51.489	-8.9497	-0.90794	-2.5953	-11.404	368.72
458.65520	-51.577	-8.9499	-0.90797	-2.597	-11.395	365.48
459.15520	-51.679	-8.9499	-0.90797	-2.6064	-11.387	362.21
459.65520	-51.347	-8.95	-0.90798	-2.5872	-11.381	358.76
460.15520	-51.633	-8.95	-0.908	-2.6003	-11.372	355.44
460.65520	-51.346	-8.95	-0.90799	-2.5893	-11.365	352.26
461.15520	-51.58	-8.9501	-0.908	-2.5959	-11.359	348.88
461.65520	-51.53	-8.9502	-0.90802	-2.5981	-11.352	345.48
462.15520	-51.479	-8.9504	-0.90805	-2.5905	-11.345	341.84
462.65520	-51.694	-8.9504	-0.90806	-2.6023	-11.339	338.33
463.15520	-51.413	-8.9505	-0.90807	-2.5908	-11.331	334.88
463.65520	-51.549	-8.9506	-0.90809	-2.5967	-11.325	331.21
464.15520	-51.385	-8.9506	-0.90809	-2.5893	-11.316	327.76
464.65520	-51.533	-8.9507	-0.90811	-2.5939	-11.31	323.91
465.15520	-51.411	-8.9508	-0.90812	-2.5894	-11.302	320.23
465.65520	-51.314	-8.9507	-0.90809	-2.5838	-11.295	316.74
466.15520	-51.489	-8.9508	-0.90812	-2.5945	-11.286	312.82
466.65520	-51.261	-8.951	-0.90815	-2.5817	-11.279	309.16
467.15520	-51.388	-8.9511	-0.90817	-2.588	-11.271	305.41
467.65520	-51.364	-8.9511	-0.90817	-2.5892	-11.265	301.87
468.15520	-51.166	-8.9513	-0.9082	-2.574	-11.258	298.11
468.65520	-51.309	-8.9512	-0.90819	-2.5848	-11.251	294.41
469.15520	-51.126	-8.9513	-0.9082	-2.575	-11.243	290.68
469.65520	-51.258	-8.9513	-0.9082	-2.5788	-11.236	287.06
470.15520	-51.045	-8.9514	-0.90822	-2.5734	-11.229	283.37
470.65520	-51.189	-8.9515	-0.90824	-2.577	-11.223	279.91
471.15520	-51.094	-8.9516	-0.90825	-2.5735	-11.217	276.49
471.65520	-50.973	-8.9516	-0.90826	-2.5669	-11.208	273.24
472.15520	-51.152	-8.9517	-0.90828	-2.5766	-11.2	269.58
472.65520	-50.88	-8.9517	-0.90828	-2.5613	-11.192	266.23
473.15520	-51.004	-8.9518	-0.90829	-2.567	-11.187	263.14
473.65520	-50.878	-8.9519	-0.90831	-2.5656	-11.179	260.05
474.15520	-50.606	-8.9519	-0.90831	-2.5482	-11.173	257.02
474.65520	-50.617	-8.952	-0.90832	-2.5494	-11.165	254.02
475.15520	-50.473	-8.9521	-0.90834	-2.5418	-11.157	251.07
475.65520	-50.533	-8.9522	-0.90835	-2.5427	-11.151	248.29
476.15520	-50.405	-8.9522	-0.90836	-2.5387	-11.145	245.56
476.65520	-50.405	-8.9523	-0.90837	-2.5342	-11.137	242.96
477.15520	-50.403	-8.9523	-0.90838	-2.5366	-11.128	240.43
477.65520	-50.158	-8.9524	-0.90839	-2.5246	-11.122	237.81
478.15520	-50.35	-8.9524	-0.9084	-2.5343	-11.115	235.36
478.65520	-50.087	-8.9524	-0.9084	-2.5271	-11.107	233.04
479.15520	-50.024	-8.9525	-0.9084	-2.5179	-11.101	230.86
479.65520	-49.972	-8.9526	-0.90842	-2.5171	-11.093	228.49
480.15520	-49.936	-8.9526	-0.90843	-2.514	-11.086	226.42
480.65520	-50.02	-8.9527	-0.90844	-2.5177	-11.079	224.46
481.15520	-49.757	-8.9527	-0.90845	-2.5064	-11.071	222.44
481.65520	-49.902	-8.9528	-0.90846	-2.5119	-11.063	220.48
482.15520	-49.705	-8.9528	-0.90846	-2.5037	-11.058	218.52
482.65520	-49.57	-8.9528	-0.90847	-2.4946	-11.049	216.68
483.15520	-49.231	-8.9528	-0.90845	-2.4797	-11.043	214.75
483.65520	-48.887	-8.9527	-0.90844	-2.4612	-11.036	213.01
484.15520	-49.176	-8.9528	-0.90846	-2.4745	-11.03	211.25
484.65520	-48.937	-8.9528	-0.90845	-2.4645	-11.022	209.56
485.15520	-49.094	-8.9529	-0.90847	-2.4668	-11.014	208.05
485.65520	-49.079	-8.9529	-0.90847	-2.4723	-11.008	206.29
486.15520	-49.014	-8.9529	-0.90847	-2.4653	-11.002	204.72
486.65520	-48.949	-8.953	-0.90848	-2.463	-10.994	203.11
487.15520	-48.761	-8.9529	-0.90847	-2.4556	-10.987	201.65
487.65520	-48.788	-8.9529	-0.90846	-2.4545	-10.979	200.04
488.15520	-48.774	-8.9529	-0.90846	-2.458	-10.972	198.54
488.65520	-48.608	-8.9528	-0.90846	-2.4464	-10.965	196.94
489.15520	-48.721	-8.9528	-0.90845	-2.4518	-10.958	195.33
489.65520	-48.403	-8.9528	-0.90846	-2.4374	-10.95	193.75
490.15520	-48.4	-8.9528	-0.90845	-2.4361	-10.943	192.21
490.65520	-48.155	-8.9528	-0.90845	-2.425	-10.935	190.61
491.15520	-48.167	-8.9529	-0.90846	-2.4242	-10.929	189.02
491.65520	-48.113	-8.9529	-0.90847	-2.4213	-10.921	187.38
492.15520	-47.867	-8.9529	-0.90847	-2.4102	-10.913	185.73
492.65520	-47.935	-8.9528	-0.90845	-2.412	-10.907	184.24
493.15520	-47.556	-8.9528	-0.90846	-2.3971	-10.899	182.65
493.65520	-47.565	-8.9529	-0.90848	-2.393	-10.893	181.04
494.15520	-47.534	-8.9528	-0.90846	-2.3931	-10.888	179.47
494.65520	-47.367	-8.9529	-0.90847	-2.384	-10.881	177.89
495.15520	-47.334	-8.9528	-0.90845	-2.3827	-10.874	176.17
495.65520	-47.078	-8.9527	-0.90844	-2.3717	-10.866	174.65
496.15520	-46.948	-8.9527	-0.90845	-2.3619	-10.859	172.98
496.65520	-46.899	-8.9527	-0.90843	-2.3635	-10.852	171.4
497.15520	-46.644	-8.9527	-0.90843	-2.3475	-10.845	169.88
497.65520	-46.646	-8.9527	-0.90844	-2.3479	-10.837	168.17
498.15520	-46.39	-8.9527	-0.90845	-2.3374	-10.831	166.54
498.65520	-46.321	-8.9526	-0.90843	-2.3284	-10.824	164.99
499.15520	-46.23	-8.9527	-0.90844	-2.3292	-10.815	163.34
499.65520	-45.963	-8.9526	-0.90843	-2.3106	-10.808	161.79
500.15520	-45.954	-8.9527	-0.90843	-2.3133	-10.8	160.23
500.65520	-45.65	-8.9527	-0.90844	-2.301	-10.794	158.53
501.15520	-45.58	-8.9527	-0.90844	-2.2928	-10.787	157.04
501.65520	-45.445	-8.9526	-0.90843	-2.2898	-10.779	155.58
502.15520	-45.141	-8.9525	-0.90841	-2.272	-10.771	153.91
502.65520	-45.181	-8.9526	-0.90842	-2.2754	-10.765	152.37
503.15520	-44.94	-8.9525	-0.90841	-2.2624	-10.758	150.92
503.65520	-44.953	-8.9525	-0.90841	-2.2616	-10.752	149.43
504.15520	-44.889	-8.9525	-0.90841	-2.2607	-10.741	147.94
504.65520	-44.62	-8.9525	-0.9084	-2.2456	-10.733	146.39
505.15520	-44.551	-8.9525	-0.90841	-2.243	-10.728	144.85
505.65520	-44.179	-8.9525	-0.90841	-2.2262	-10.721	143.48
506.15520	-44.222	-8.9524	-0.9084	-2.2242	-10.714	142.08
506.65520	-43.958	-8.9524	-0.9084	-2.2159	-10.707	140.57
507.15520	-43.775	-8.9524	-0.90838	-2.202	-10.699	139.23
507.65520	-43.726	-8.9523	-0.90838	-2.203	-10.692	137.82
508.15520	-43.368	-8.9524	-0.90839	-2.1858	-10.684	136.43
508.65520	-43.359	-8.9524	-0.90838	-2.1823	-10.676	135.06
509.15520	-43.159	-8.9523	-0.90837	-2.1742	-10.671	133.74
509.65520	-42.92	-8.9523	-0.90837	-2.158	-10.665	132.46
510.15520	-42.883	-8.9523	-0.90837	-2.1607	-10.658	131
510.65520	-42.585	-8.9523	-0.90837	-2.1442	-10.649	129.9
511.15520	-42.554	-8.9523	-0.90836	-2.1411	-10.642	128.63
511.65520	-42.337	-8.9522	-0.90836	-2.1331	-10.636	127.4
512.15520	-42.168	-8.9522	-0.90835	-2.1219	-10.628	126.19
512.65520	-42.065	-8.9522	-0.90834	-2.1184	-10.622	125.09
513.15520	-41.689	-8.9522	-0.90835	-2.0993	-10.615	123.9
513.65520	-41.769	-8.9521	-0.90833	-2.1025	-10.608	122.78
514.15520	-41.507	-8.952	-0.90832	-2.0919	-10.602	121.62
514.65520	-41.373	-8.952	-0.90832	-2.0823	-10.594	120.39
515.15520	-41.271	-8.952	-0.90832	-2.0768	-10.584	119.32
515.65520	-40.952	-8.952	-0.90832	-2.062	-10.58	118.27
516.15520	-41.05	-8.952	-0.90831	-2.0677	-10.571	117.14
516.65520	-40.708	-8.9519	-0.9083	-2.0495	-10.565	116.07
517.15520	-40.503	-8.9519	-0.9083	-2.0355	-10.557	115.16
517.65520	-40.354	-8.9518	-0.90829	-2.0341	-10.55	114.1
518.15520	-40.178	-8.9519	-0.9083	-2.0227	-10.542	113.13
518.65520	-40.2	-8.9518	-0.90828	-2.0225	-10.535	112.07
519.15520	-39.853	-8.9518	-0.90829	-2.0074	-10.528	111.18
519.65520	-39.945	-8.9517	-0.90827	-2.0115	-10.52	110.02
520.15520	-39.673	-8.9517	-0.90826	-1.9994	-10.513	109.12
520.65520	-39.426	-8.9517	-0.90827	-1.9847	-10.506	108.19
521.15520	-39.476	-8.9517	-0.90827	-1.9896	-10.5	107.34
521.65520	-39.162	-8.9517	-0.90827	-1.9724	-10.492	106.4
522.15520	-39.101	-8.9516	-0.90826	-1.9677	-10.485	105.46
522.65520	-38.836	-8.9516	-0.90824	-1.9589	-10.478	104.57
523.15520	-38.935	-8.9515	-0.90825	-1.9574	-10.471	103.8
523.65520	-38.674	-8.9515	-0.90824	-1.9489	-10.464	103
524.15520	-38.438	-8.9515	-0.90824	-1.9334	-10.455	102.18
524.65520	-38.459	-8.9515	-0.90824	-1.9355	-10.449	101.37
525.15520	-38.014	-8.9514	-0.90823	-1.9154	-10.44	100.53
525.65520	-38.109	-8.9515	-0.90823	-1.915	-10.435	99.743
526.15520	-38.024	-8.9514	-0.90823	-1.9148	-10.427	98.972
526.65520	-37.717	-8.9514	-0.90823	-1.8957	-10.421	98.19
527.15520	-37.714	-8.9514	-0.90822	-1.8984	-10.412	97.43
527.65520	-37.51	-8.9513	-0.90822	-1.8885	-10.406	96.678
528.15520	-37.521	-8.9513	-0.90822	-1.8874	-10.399	96.015
528.65520	-37.281	-8.9514	-0.90822	-1.8795	-10.391	95.264
529.15520	-37.26	-8.9513	-0.9082	-1.874	-10.385	94.586
529.65520	-37.083	-8.9514	-0.90823	-1.8703	-10.377	93.838
530.15520	-36.752	-8.9513	-0.90821	-1.8497	-10.369	93.116
530.65520	-36.773	-8.9513	-0.90821	-1.8511	-10.362	92.514
531.15520	-36.414	-8.9512	-0.90819	-1.8352	-10.353	91.84
531.65520	-36.495	-8.9511	-0.90819	-1.8372	-10.347	91.181
532.15520	-36.225	-8.9511	-0.90819	-1.8261	-10.341	90.562
532.65520	-36.083	-8.9511	-0.90818	-1.8154	-10.333	90.051
533.15520	-36.098	-8.9511	-0.90818	-1.8179	-10.324	89.398
533.65520	-35.752	-8.951	-0.90815	-1.8017	-10.317	88.69
534.15520	-35.821	-8.9511	-0.90817	-1.8007	-10.311	88.145
534.65520	-35.66	-8.951	-0.90816	-1.7972	-10.304	87.487
535.15520	-35.417	-8.9511	-0.90818	-1.7817	-10.296	86.906
535.65520	-35.362	-8.9511	-0.90817	-1.7833	-10.291	86.382
536.15520	-35.053	-8.951	-0.90815	-1.7647	-10.282	85.806
536.65520	-35.135	-8.951	-0.90815	-1.7698	-10.275	85.147
537.15520	-34.833	-8.951	-0.90816	-1.7558	-10.267	84.551
537.65520	-34.805	-8.9509	-0.90814	-1.7516	-10.259	84.037
538.15520	-34.724	-8.9509	-0.90814	-1.7493	-10.253	83.551
538.65520	-34.464	-8.9509	-0.90813	-1.7346	-10.246	82.904
539.15520	-34.508	-8.9509	-0.90813	-1.7356	-10.237	82.404
539.65520	-34.193	-8.9509	-0.90814	-1.7253	-10.231	81.903
540.15520	-34.188	-8.9509	-0.90813	-1.7206	-10.226	81.401
540.65520	-34.087	-8.9509	-0.90813	-1.719	-10.218	80.951
541.15520	-33.91	-8.9508	-0.90813	-1.7073	-10.21	80.389
541.65520	-33.895	-8.9508	-0.90811	-1.7061	-10.203	79.844
542.15520	-33.507	-8.9507	-0.90811	-1.6858	-10.195	79.378
542.65520	-33.655	-8.9508	-0.90811	-1.6916	-10.188	78.882
543.15520	-33.39	-8.9507	-0.90811	-1.6833	-10.18	78.469
543.65520	-33.305	-8.9507	-0.9081	-1.6756	-10.173	77.824
544.15520	-33.136	-8.9507	-0.9081	-1.6702	-10.166	77.444
544.65520	-32.971	-8.9507	-0.9081	-1.6614	-10.159	76.988
545.15520	-32.999	-8.9507	-0.9081	-1.6622	-10.151	76.475
545.65520	-32.844	-8.9506	-0.90809	-1.6575	-10.144	76.1
546.15520	-32.62	-8.9505	-0.90808	-1.6419	-10.139	75.696
546.65520	-32.624	-8.9506	-0.90809	-1.6436	-10.131	75.136
547.15520	-32.384	-8.9506	-0.90809	-1.6311	-10.122	74.654
547.65520	-32.343	-8.9505	-0.90808	-1.6278	-10.113	74.209
548.15520	-32.216	-8.9506	-0.90808	-1.6225	-10.108	73.767
548.65520	-32.131	-8.9506	-0.90809	-1.617	-10.102	73.327
549.15520	-32.042	-8.9505	-0.90809	-1.6144	-10.093	72.942
549.65520	-31.883	-8.9505	-0.90808	-1.6059	-10.087	72.587
550.15520	-31.826	-8.9505	-0.90807	-1.6016	-10.079	72.166
550.65520	-31.588	-8.9504	-0.90806	-1.5942	-10.072	71.801
551.15520	-31.493	-8.9504	-0.90806	-1.5839	-10.063	71.398
551.65520	-31.418	-8.9503	-0.90805	-1.583	-10.058	71.061
552.15520	-31.246	-8.9504	-0.90806	-1.5745	-10.051	70.66
552.65520	-31.231	-8.9504	-0.90807	-1.5736	-10.043	70.228
553.15520	-31.077	-8.9504	-0.90806	-1.5663	-10.035	69.917
553.65520	-30.885	-8.9504	-0.90806	-1.5548	-10.029	69.525
554.15520	-30.846	-8.9504	-0.90806	-1.5532	-10.022	69.121
554.65520	-30.633	-8.9503	-0.90805	-1.543	-10.015	68.753
555.15520	-30.639	-8.9504	-0.90807	-1.5443	-10.007	68.425
555.65520	-30.363	-8.9504	-0.90807	-1.5335	-10.001	67.985
556.15520	-30.381	-8.9504	-0.90807	-1.5288	-9.993	67.64
556.65520	-30.337	-8.9505	-0.90808	-1.529	-9.9859	67.312
557.15520	-30.025	-8.9504	-0.90807	-1.5127	-9.9776	66.975
557.65520	-30.132	-8.9505	-0.90808	-1.5194	-9.9713	66.585
558.15520	-29.793	-8.9505	-0.90808	-1.5017	-9.964	66.21
558.65520	-29.876	-8.9504	-0.90806	-1.5045	-9.957	65.968
559.15520	-29.915	-8.9505	-0.90807	-1.5081	-9.9502	65.638
559.65520	-29.892	-8.9506	-0.90809	-1.5074	-9.943	65.311
560.15520	-30.069	-8.9506	-0.90809	-1.5146	-9.9346	65.003
560.65520	-29.929	-8.9507	-0.9081	-1.5109	-9.9279	64.714
561.15520	-29.949	-8.9508	-0.90812	-1.5083	-9.9205	64.426
561.65520	-29.871	-8.9508	-0.90812	-1.5073	-9.9135	64.141
562.15520	-29.696	-8.9509	-0.90814	-1.4964	-9.9055	63.858
562.65520	-29.829	-8.9508	-0.90813	-1.503	-9.9	63.521
563.15520	-29.556	-8.9509	-0.90813	-1.4911	-9.8919	63.084
563.65520	-29.664	-8.9509	-0.90814	-1.4929	-9.8858	62.957
564.15520	-29.645	-8.951	-0.90815	-1.4939	-9.8785	62.58
564.65520	-29.44	-8.951	-0.90815	-1.4815	-9.8707	62.354
565.15520	-29.468	-8.951	-0.90816	-1.4863	-9.8634	62.138
565.65520	-29.198	-8.9511	-0.90817	-1.4732	-9.8569	61.657
566.15520	-29.306	-8.9512	-0.90819	-1.4754	-9.8482	61.438
566.65520	-29.289	-8.9512	-0.90819	-1.4768	-9.8425	61.111
567.15520	-29.07	-8.9512	-0.90819	-1.4642	-9.8344	60.885
567.65520	-29.136	-8.9513	-0.90819	-1.4666	-9.8268	60.561
568.15520	-28.981	-8.9514	-0.90821	-1.4587	-9.8202	60.38
568.65520	-28.978	-8.9515	-0.90823	-1.4567	-9.8137	60.066
569.15520	-28.804	-8.9514	-0.90822	-1.4517	-9.8056	59.867
569.65520	-28.683	-8.9515	-0.90823	-1.4429	-9.7991	59.531
570.15520	-28.794	-8.9514	-0.90823	-1.449	-9.7925	59.349
570.65520	-28.437	-8.9514	-0.90822	-1.4317	-9.7839	59.106
571.15520	-28.519	-8.9514	-0.90822	-1.4363	-9.7766	58.907
571.65520	-28.341	-8.9515	-0.90824	-1.4289	-9.7695	58.622
572.15520	-28.258	-8.9515	-0.90823	-1.4215	-9.7638	58.394
572.65520	-28.243	-8.9516	-0.90824	-1.4223	-9.7568	58.156
573.15520	-28.106	-8.9516	-0.90825	-1.4168	-9.7482	57.879
573.65520	-28.131	-8.9516	-0.90826	-1.415	-9.7404	57.622
574.15520	-27.935	-8.9516	-0.90827	-1.4102	-9.7333	57.388
574.65520	-27.918	-8.9517	-0.90828	-1.4048	-9.7267	57.035
575.15520	-27.917	-8.9518	-0.90828	-1.4067	-9.72	56.795
575.65520	-27.581	-8.9518	-0.90829	-1.3906	-9.7129	56.622
576.15520	-27.664	-8.9517	-0.90828	-1.3916	-9.7048	56.307
576.65520	-27.568	-8.9517	-0.90828	-1.3901	-9.6992	56.168
577.15520	-27.405	-8.9518	-0.90829	-1.3785	-9.6906	55.942
577.65520	-27.534	-8.9518	-0.90829	-1.3857	-9.6845	55.725
578.15520	-27.167	-8.9518	-0.90829	-1.371	-9.6766	55.488
578.65520	-27.344	-8.9518	-0.90829	-1.3733	-9.6699	55.296
579.15520	-27.091	-8.9518	-0.90829	-1.3651	-9.6634	55.037
579.65520	-26.975	-8.9518	-0.90829	-1.356	-9.6548	54.892
580.15520	-27.041	-8.9519	-0.90831	-1.3637	-9.6477	54.731
580.65520	-26.795	-8.9518	-0.9083	-1.3515	-9.6402	54.478
581.15520	-26.887	-8.9518	-0.9083	-1.3547	-9.6333	54.319
581.65520	-26.723	-8.9518	-0.90829	-1.3492	-9.6262	54.121
582.15520	-26.467	-8.9518	-0.9083	-1.3317	-9.62	53.941
