Time(sec)	Force(kgf)	LGauge(mm)	Strain	Stress(MPa)	Stroke(mm)	TC1(C)
0.00000	-142.8	-0.00011343	7.7126e-06	-17.847	0.037231	44.387
1.00000	-142.74	1.3593e-05	1.7394e-06	-17.819	0.034498	44.367
2.00000	-142.46	-4.9349e-05	-4.9244e-06	-17.788	0.033377	44.277
3.00000	-142.48	-0.00011516	-6.9615e-06	-17.796	0.032714	44.149
4.00000	-142.45	-0.00021993	-1.2574e-05	-17.792	0.033548	44.079
5.00000	-142.39	-0.00029324	-1.5527e-05	-17.781	0.034394	43.985
6.00000	-142.35	-0.00039576	-2.4717e-05	-17.773	0.036936	43.875
7.00000	-142.25	-0.00048229	-3.2011e-05	-17.758	0.038031	43.791
8.00000	-142.13	-0.00063146	-3.8928e-05	-17.749	0.038796	43.703
9.00000	-142.35	-0.00053616	-3.3355e-05	-17.779	0.043411	43.552
10.00000	-153.2	-9.5277e-06	2.4063e-06	-19.131	0.045946	44.022
11.00000	-173.34	0.0010422	7.0413e-05	-21.64	0.046303	47.668
12.00000	-183.24	0.0030407	0.0002037	-22.874	0.048018	55.579
13.00000	-185.22	0.0036357	0.00024224	-23.133	0.051664	63.713
14.00000	-186.15	0.0037588	0.00025046	-23.252	0.051715	69.269
15.00000	-189.19	0.0043405	0.00028894	-23.631	0.051905	72.844
15.49680	-190.14	0.0052452	0.00034829	-23.75	0.051821	74.741
16.49680	-191.56	0.0077721	0.00051784	-23.932	0.052339	79.615
16.91030	-191.88	0.0087825	0.00058612	-23.968	0.052055	82.035
17.91030	-192.76	0.010503	0.00069992	-24.085	0.052175	87.907
18.91030	-193.23	0.011958	0.00079606	-24.148	0.050843	93.114
19.91030	-193.33	0.013796	0.00091622	-24.168	0.05126	97.687
20.91030	-193.22	0.016137	0.0010741	-24.15	0.050881	102.38
21.91030	-193.06	0.01827	0.0012164	-24.135	0.051688	107.54
22.91030	-193.06	0.02047	0.0013616	-24.144	0.051288	112.7
23.91030	-193.33	0.022377	0.0014875	-24.189	0.051278	117.79
24.91030	-193.5	0.024501	0.001633	-24.204	0.050726	122.68
25.91030	-193.48	0.02698	0.001799	-24.195	0.051026	127.56
26.91030	-193.34	0.029371	0.0019549	-24.187	0.050913	132.71
27.91030	-193.62	0.031399	0.00209	-24.231	0.051062	137.72
28.91030	-193.72	0.033679	0.0022442	-24.244	0.051451	142.59
29.91030	-193.78	0.035993	0.0024007	-24.251	0.05125	147.57
30.91030	-193.66	0.038442	0.0025626	-24.235	0.051156	152.53
31.91030	-193.5	0.040948	0.0027252	-24.225	0.051857	157.53
32.91030	-193.69	0.043239	0.0028786	-24.259	0.051124	162.7
33.91030	-193.84	0.045522	0.0030346	-24.278	0.051594	167.68
34.91030	-193.96	0.048013	0.0031994	-24.293	0.051446	172.61
35.91030	-193.88	0.050311	0.0033494	-24.291	0.051785	177.59
36.91030	-193.93	0.052653	0.0035042	-24.297	0.051674	182.72
37.91030	-194	0.055103	0.0036686	-24.317	0.050918	187.78
38.91030	-194.11	0.057666	0.0038369	-24.339	0.051701	192.68
39.91030	-194.38	0.060092	0.0039978	-24.367	0.052177	197.64
40.91030	-194.27	0.062807	0.0041783	-24.354	0.049817	202.61
41.91030	-194.18	0.065661	0.0043674	-24.355	0.050599	207.56
42.91030	-194.43	0.068492	0.0045564	-24.391	0.050947	212.73
43.91030	-194.53	0.070982	0.0047199	-24.404	0.05056	217.91
44.91030	-194.68	0.073676	0.0048974	-24.422	0.050363	222.82
45.91030	-194.66	0.076372	0.0050758	-24.43	0.050217	227.69
46.91030	-194.74	0.079127	0.0052599	-24.441	0.050529	232.56
47.91030	-194.83	0.082031	0.005453	-24.464	0.050225	237.5
48.91030	-194.85	0.084779	0.0056329	-24.468	0.049902	242.48
49.91030	-195.09	0.087733	0.0058292	-24.503	0.04934	247.55
50.91030	-195.01	0.090611	0.0060226	-24.489	0.048033	252.74
51.91030	-195.12	0.093382	0.0062087	-24.518	0.047382	257.83
52.91030	-195.17	0.096325	0.0064004	-24.532	0.048065	262.71
53.91030	-195.34	0.099349	0.0065989	-24.558	0.047834	267.65
54.91030	-195.43	0.10243	0.0068056	-24.567	0.046814	272.65
55.91030	-195.4	0.10547	0.0070097	-24.567	0.046986	277.8
56.51940	-195.57	0.10715	0.0071205	-24.593	0.046888	280.78
57.51940	-195.64	0.11007	0.0073127	-24.607	0.046556	285.7
57.55670	-195.61	0.11021	0.0073217	-24.604	0.046618	285.89
58.55670	-195.54	0.11356	0.0075454	-24.601	0.046212	290.87
59.55670	-195.61	0.11674	0.0077562	-24.614	0.045855	296.04
60.55670	-195.78	0.11931	0.007925	-24.643	0.04492	301.2
61.55670	-195.94	0.12203	0.008103	-24.667	0.045911	306.18
62.55670	-196.12	0.12471	0.0082804	-24.69	0.045063	311.07
63.55670	-196.24	0.12753	0.0084669	-24.704	0.044632	315.85
64.55670	-196.14	0.13068	0.0086735	-24.7	0.044749	320.71
65.55670	-196.16	0.13403	0.0088949	-24.71	0.04408	325.76
66.55670	-196.25	0.13699	0.0090899	-24.731	0.04484	330.98
67.55670	-196.48	0.1398	0.0092761	-24.765	0.043904	335.99
68.55670	-196.7	0.14278	0.0094738	-24.791	0.043031	340.91
69.55670	-196.65	0.14593	0.00968	-24.792	0.043595	345.87
70.55670	-196.62	0.14892	0.0098782	-24.794	0.043617	350.85
71.55670	-196.64	0.15178	0.010067	-24.808	0.042919	355.91
72.55670	-196.69	0.15478	0.010264	-24.819	0.042644	360.91
73.55670	-196.76	0.15789	0.01047	-24.833	0.042626	365.83
74.55670	-196.99	0.16071	0.010655	-24.86	0.042775	370.74
75.55670	-197	0.16391	0.010866	-24.86	0.041772	375.54
76.55670	-197.06	0.16751	0.011107	-24.871	0.042364	380.48
77.55670	-197.16	0.17086	0.011329	-24.897	0.04101	385.63
78.55670	-197.29	0.17428	0.011551	-24.919	0.042057	390.75
79.55670	-197.43	0.17743	0.01176	-24.941	0.041563	395.86
80.55670	-197.49	0.1805	0.011963	-24.949	0.041286	400.86
81.55670	-197.43	0.18374	0.012179	-24.947	0.040506	405.78
82.55670	-197.46	0.187	0.012392	-24.964	0.041364	410.8
83.55670	-197.57	0.19047	0.01262	-24.983	0.040372	415.76
84.55670	-197.61	0.19394	0.01285	-24.992	0.040264	420.83
85.55670	-197.74	0.19744	0.013079	-25.011	0.039435	425.91
86.55670	-197.68	0.201	0.013314	-25.016	0.039155	430.87
87.55670	-197.81	0.2044	0.013537	-25.039	0.039422	435.94
88.55670	-198.06	0.20768	0.013751	-25.075	0.040205	440.89
89.55670	-198.08	0.21111	0.013977	-25.081	0.039589	445.89
90.55670	-198.27	0.2145	0.014198	-25.112	0.04051	450.98
91.55670	-198.29	0.21761	0.014401	-25.118	0.039579	455.99
92.55670	-198.38	0.22063	0.014601	-25.136	0.039577	461.1
93.55670	-198.45	0.2237	0.014804	-25.153	0.039301	466.02
94.55670	-198.56	0.22709	0.015025	-25.166	0.039363	470.87
95.55670	-198.63	0.23055	0.015253	-25.183	0.040506	475.86
96.55670	-198.74	0.23403	0.015481	-25.201	0.040606	480.88
97.46370	-198.71	0.23692	0.015669	-25.201	0.040073	485.4
98.46370	-198.92	0.23993	0.015865	-25.243	0.04109	490.35
99.46370	-199.01	0.2433	0.016087	-25.256	0.041657	495.28
100.46370	-199.04	0.24671	0.016311	-25.254	0.041833	500.28
101.46370	-199	0.24996	0.016526	-25.266	0.043164	505.35
101.70100	-199.05	0.25068	0.016575	-25.271	0.042911	506.6
102.70100	-199.23	0.25351	0.016761	-25.295	0.042785	511.62
103.70100	-199.27	0.25663	0.016962	-25.309	0.043781	516.46
104.70100	-199.28	0.25995	0.01718	-25.319	0.043697	521.42
105.70100	-199.35	0.26342	0.017412	-25.329	0.04265	526.45
106.70100	-199.44	0.26716	0.017656	-25.341	0.044298	531.49
107.70100	-199.46	0.27052	0.017873	-25.353	0.044268	536.62
108.70100	-199.5	0.27374	0.018083	-25.367	0.043706	541.72
109.70100	-199.67	0.27685	0.018291	-25.395	0.044214	546.82
110.70100	-199.79	0.27997	0.018497	-25.413	0.044298	551.87
111.70100	-199.95	0.28285	0.018684	-25.437	0.04492	556.75
112.70100	-200	0.28582	0.018875	-25.45	0.044576	561.53
113.70100	-199.97	0.28894	0.019078	-25.454	0.045915	566.43
114.70100	-200.14	0.29222	0.019295	-25.478	0.045472	571.48
115.70100	-200.27	0.29515	0.019486	-25.499	0.045312	576.64
116.70100	-200.39	0.29816	0.019685	-25.518	0.045128	581.67
117.70100	-200.46	0.30123	0.019884	-25.53	0.04532	586.73
118.70100	-200.36	0.30431	0.020084	-25.528	0.044986	591.75
119.70100	-200.55	0.30697	0.020257	-25.557	0.045654	596.8
120.70100	-200.75	0.30943	0.020416	-25.59	0.045568	601.73
121.70100	-200.86	0.31229	0.020602	-25.604	0.04518	606.62
122.70100	-201.02	0.31495	0.020777	-25.626	0.044751	611.66
123.70100	-201.06	0.31752	0.020946	-25.634	0.044623	616.69
124.70100	-201.16	0.31999	0.021108	-25.658	0.046567	621.63
125.70100	-201.14	0.32226	0.021256	-25.659	0.045492	626.74
126.70100	-201.33	0.32465	0.021412	-25.681	0.045196	631.54
127.70100	-201.3	0.32752	0.021598	-25.682	0.045451	636.44
128.70100	-201.32	0.33024	0.021781	-25.687	0.044617	641.48
129.70100	-201.45	0.33251	0.021926	-25.711	0.044921	646.56
130.70100	-201.66	0.33428	0.022041	-25.744	0.044674	651.49
131.70100	-201.95	0.33622	0.022171	-25.781	0.044921	656.34
132.70100	-201.88	0.33858	0.022326	-25.774	0.04567	661.09
133.70100	-201.94	0.34109	0.022486	-25.783	0.044549	666.07
134.70100	-201.91	0.34374	0.022658	-25.785	0.044203	671.21
135.70100	-202.01	0.34589	0.022801	-25.805	0.045665	676.57
136.70100	-202.24	0.3476	0.022913	-25.837	0.045099	681.72
137.70100	-202.44	0.34931	0.023023	-25.863	0.044652	686.68
138.50170	-202.45	0.35072	0.023116	-25.87	0.04384	690.57
139.50170	-202.48	0.35268	0.023243	-25.877	0.043769	695.53
140.50170	-202.52	0.35464	0.023371	-25.888	0.044584	700.7
140.82990	-202.57	0.35513	0.023401	-25.891	0.044587	702.31
141.82990	-202.82	0.35652	0.023489	-25.928	0.04433	707.27
142.82990	-203	0.35787	0.023576	-25.952	0.043882	712.28
143.82990	-203.51	0.35886	0.023641	-26.021	0.045195	717.35
144.82990	-203.71	0.35976	0.0237	-26.044	0.044529	722.25
145.82990	-203.02	0.36038	0.023742	-25.955	0.044859	727.07
146.82990	-195.22	0.36014	0.023726	-24.964	0.044961	731.81
147.82990	-178.63	0.3581	0.02359	-22.839	0.045805	736.2
148.82990	-166.68	0.35481	0.023375	-21.305	0.045141	738.72
149.82990	-163.27	0.34887	0.022989	-20.86	0.044872	739.52
150.82990	-166.46	0.34734	0.022888	-21.267	0.046765	740.14
151.82990	-183.45	0.3499	0.023054	-23.446	0.046586	743.28
152.82990	-197.15	0.35493	0.023386	-25.195	0.045644	758.15
153.82990	-175.18	0.35148	0.023162	-22.383	0.04577	783.79
154.82990	-159.83	0.33708	0.022221	-20.401	0.045629	790.2
155.82990	-157.4	0.32655	0.021534	-20.085	0.045682	788.24
156.82990	-157.33	0.32424	0.021385	-20.074	0.046153	786.99
157.82990	-165.56	0.32472	0.021415	-21.127	0.046378	788.68
158.82990	-176.95	0.32541	0.021463	-22.57	0.046651	792.66
159.82990	-184.66	0.3264	0.021527	-23.557	0.046966	797.47
160.82990	-106.99	0.33434	0.022048	-13.655	0.045923	801.99
161.82990	-97.744	0.33841	0.022316	-12.482	0.046959	806.37
162.82990	-98.421	0.34202	0.022548	-12.572	0.047697	811.2
163.82990	-99.025	0.34552	0.022773	-12.647	0.056555	816.32
164.82990	-99.376	0.34906	0.023004	-12.697	0.056399	821.48
165.82990	-99.719	0.35248	0.023228	-12.743	0.052592	826.63
166.82990	-100.05	0.356	0.023459	-12.788	0.048696	831.77
167.82990	-100.2	0.35984	0.023708	-12.812	0.049545	836.89
168.82990	-100.19	0.3638	0.023964	-12.813	0.052916	841.86
169.82990	-100.17	0.36776	0.024219	-12.814	0.054266	846.9
170.82990	-100.13	0.37162	0.02447	-12.814	0.053828	851.97
171.82990	-100.18	0.37563	0.024733	-12.825	0.051247	857.08
172.82990	-100.22	0.37975	0.025002	-12.834	0.050549	862.11
173.82990	-100.34	0.38379	0.025264	-12.852	0.052949	867.17
174.82990	-100.26	0.38752	0.025504	-12.841	0.057788	872.25
175.82990	-100.23	0.39117	0.025739	-12.841	0.056998	877.18
176.82990	-100.39	0.39492	0.025984	-12.87	0.055827	882.16
177.82990	-100.3	0.39901	0.026252	-12.862	0.05541	887.19
178.82990	-100.54	0.40322	0.026524	-12.892	0.055298	892.2
179.44250	-100.34	0.4056	0.026679	-12.871	0.054991	895.27
180.44250	-100.3	0.40929	0.026919	-12.87	0.054805	900.21
180.47010	-100.33	0.40944	0.026928	-12.875	0.054635	900.34
181.47010	-100.5	0.41309	0.027165	-12.895	0.054422	905.19
182.47010	-100.72	0.41672	0.027402	-12.922	0.055633	910.18
183.47010	-100.52	0.42039	0.027642	-12.902	0.057136	915.19
184.47010	-100.4	0.42416	0.027887	-12.889	0.057422	920.2
185.47010	-100.5	0.42801	0.028136	-12.911	0.059561	925.24
186.47010	-100.65	0.43177	0.028381	-12.932	0.060894	930.26
187.47010	-100.61	0.43546	0.028622	-12.931	0.059505	935.31
188.47010	-100.68	0.43905	0.028854	-12.934	0.059561	940.28
189.47010	-100.71	0.44237	0.029065	-12.944	0.060379	945.2
190.47010	-100.83	0.44584	0.029291	-12.964	0.060288	950.14
191.47010	-100.98	0.44914	0.029504	-12.986	0.061644	955.18
192.47010	-101.03	0.45215	0.029698	-12.994	0.06128	960.21
193.47010	-101.08	0.45475	0.029864	-13	0.06148	965.22
194.47010	-101.04	0.45754	0.030044	-13.002	0.057738	970.26
195.47010	-101.2	0.46013	0.030213	-13.026	0.0564	975.28
196.47010	-101.35	0.46255	0.030369	-13.045	0.055915	980.41
197.47010	-101.43	0.4645	0.030494	-13.056	0.056623	985.45
198.47010	-102.03	0.46567	0.030571	-13.133	0.056835	990.11
199.47010	-101.81	0.46717	0.030668	-13.106	0.058224	995
200.47010	-101.9	0.46855	0.030756	-13.122	0.060664	999.89
201.47010	-102.22	0.46951	0.030819	-13.168	0.062676	1005
202.47010	-102.94	0.46996	0.03085	-13.259	0.06028	1010.2
203.47010	-102.92	0.47001	0.030853	-13.252	0.058478	1015.5
204.47010	-101.92	0.46995	0.030848	-13.127	0.059666	1020.4
205.47010	-100.69	0.46985	0.030844	-12.96	0.062301	1025.6
206.47010	-99.688	0.46979	0.030838	-12.835	0.064015	1030.4
207.47010	-99.343	0.46988	0.030844	-12.794	0.063901	1035.6
208.47010	-97.967	0.46998	0.030852	-12.62	0.064384	1040.8
209.47010	-97.279	0.47006	0.030857	-12.53	0.06466	1045.9
210.47010	-96.187	0.47015	0.03086	-12.386	0.06433	1050.8
211.47010	-95.47	0.47021	0.030863	-12.3	0.064568	1055.7
212.47010	-95.047	0.47026	0.03087	-12.244	0.063833	1060.6
213.47010	-94.614	0.47032	0.030875	-12.192	0.063191	1065.5
214.47010	-94.277	0.47046	0.030882	-12.144	0.063215	1070.5
215.47010	-93.756	0.4705	0.030884	-12.071	0.06327	1075.4
216.47010	-93.206	0.47057	0.03089	-11.998	0.064461	1080.3
217.47010	-92.963	0.47057	0.03089	-11.969	0.06436	1085.4
218.47010	-92.153	0.47059	0.03089	-11.869	0.063216	1090.5
219.47010	-91.57	0.47056	0.030886	-11.796	0.063464	1095.5
220.47010	-90.76	0.47047	0.030881	-11.692	0.063076	1100.3
220.47400	-90.751	0.47047	0.030881	-11.691	0.063092	1100.4
221.47400	-90.163	0.47046	0.030881	-11.609	0.064519	1105.2
222.47400	-89.556	0.47046	0.03088	-11.532	0.064487	1110.2
223.47400	-88.839	0.47034	0.030873	-11.442	0.064187	1115.4
224.47400	-87.894	0.47032	0.030871	-11.324	0.064941	1120.5
225.47400	-86.828	0.4702	0.030864	-11.186	0.064539	1125.6
226.47400	-85.858	0.47006	0.030852	-11.058	0.063874	1130.4
227.47400	-85.41	0.46992	0.030843	-11.001	0.064273	1135.4
228.47400	-84.275	0.46977	0.030834	-10.854	0.064146	1140.6
229.47400	-83.626	0.46965	0.030827	-10.773	0.064492	1145.5
230.47400	-82.478	0.46945	0.030813	-10.622	0.063893	1150.5
231.47400	-81.741	0.46946	0.030816	-10.526	0.065272	1155.4
232.47400	-81.063	0.46951	0.030818	-10.438	0.065452	1160.3
233.47400	-80.195	0.46951	0.030819	-10.331	0.065329	1165.5
234.47400	-79.265	0.46953	0.030822	-10.21	0.065287	1170.5
235.47400	-78.939	0.46947	0.030821	-10.172	0.065097	1175.4
236.47400	-78.31	0.46945	0.030816	-10.086	0.065059	1180.5
237.47400	-77.565	0.46936	0.03081	-9.9879	0.064531	1185.4
238.47400	-77.171	0.46928	0.030807	-9.9349	0.065745	1190.4
239.47400	-76.864	0.46922	0.030804	-9.8961	0.065683	1195.2
240.47400	-75.855	0.46907	0.030793	-9.7688	0.064428	1200
241.47400	-71.823	0.46725	0.030677	-9.2476	0.064461	1202.3
242.47400	-69.187	0.46574	0.030581	-8.904	0.065401	1201.9
243.47400	-68.098	0.46552	0.030566	-8.764	0.065492	1200.9
244.47400	-68.855	0.46562	0.030571	-8.8651	0.065878	1200
245.47400	-70.286	0.4657	0.030574	-9.052	0.065943	1199.5
246.47400	-71.193	0.46572	0.030577	-9.1707	0.065563	1199.4
247.47400	-71.024	0.46578	0.03058	-9.1417	0.064946	1199.6
248.47400	-70.412	0.46573	0.030575	-9.0585	0.065669	1199.9
249.47400	-68.587	0.46557	0.030564	-8.8262	0.065439	1200.1
250.47400	-67.527	0.46494	0.030522	-8.6988	0.066137	1200
251.47400	-66.703	0.4642	0.030475	-8.5939	0.068214	1199.9
252.47400	-65.677	0.46369	0.030442	-8.4593	0.068489	1200
253.47400	-64.995	0.46326	0.030415	-8.3642	0.068152	1200.4
254.47400	-63.615	0.4626	0.030373	-8.1865	0.066727	1200.6
255.47400	-62.631	0.46173	0.030319	-8.0588	0.066909	1200.8
256.47400	-61.173	0.46077	0.030257	-7.876	0.067118	1200.7
257.47400	-61.319	0.4593	0.03016	-7.8945	0.068283	1200.7
258.47400	-60.817	0.4575	0.030044	-7.8274	0.070157	1200.8
259.47400	-60.405	0.45556	0.02992	-7.772	0.069535	1200.6
260.47400	-59.697	0.45366	0.029797	-7.6757	0.070465	1200.4
261.40160	-59.316	0.45193	0.029683	-7.6334	0.070487	1200.3
262.40160	-58.924	0.4505	0.029589	-7.5837	0.071561	1200.3
263.40160	-58.75	0.4488	0.029481	-7.5549	0.071762	1200.4
264.40160	-58.328	0.44723	0.02938	-7.4999	0.071008	1200.4
264.73570	-58.416	0.44679	0.029351	-7.507	0.072866	1200.4
265.73570	-58.217	0.44544	0.029266	-7.4775	0.070785	1200.5
266.73570	-57.73	0.4442	0.029187	-7.4212	0.070359	1200.7
267.73570	-57.78	0.4428	0.029094	-7.4292	0.07036	1200.8
268.73570	-57.272	0.44156	0.029015	-7.361	0.069745	1200.8
269.73570	-57.539	0.44014	0.028919	-7.3967	0.069718	1200.8
270.73570	-57.543	0.43829	0.028799	-7.3919	0.069178	1200.7
271.73570	-57.061	0.43715	0.028728	-7.3283	0.069299	1200.7
272.73570	-57.37	0.43567	0.028634	-7.3733	0.068608	1200.8
273.73570	-57.417	0.43423	0.028538	-7.3799	0.069045	1200.7
274.73570	-57.395	0.43254	0.028424	-7.3728	0.069484	1200.6
275.73570	-57.261	0.43099	0.028326	-7.3522	0.068586	1200.7
276.73570	-57.358	0.42918	0.028208	-7.3642	0.068641	1200.7
277.73570	-57.377	0.42756	0.028104	-7.3725	0.068862	1200.6
278.73570	-57.368	0.42609	0.028009	-7.3742	0.068051	1200.4
279.73570	-56.983	0.42495	0.027936	-7.3211	0.068001	1200.2
280.73570	-56.379	0.4241	0.027882	-7.2431	0.067492	1199.9
281.73570	-57.461	0.42266	0.027784	-7.3769	0.069301	1199.8
282.73570	-56.885	0.42225	0.027758	-7.305	0.070996	1199.9
283.73570	-56.315	0.42197	0.027738	-7.2335	0.07141	1200
284.73570	-57.374	0.42121	0.027691	-7.3685	0.068601	1200
285.73570	-58.361	0.42034	0.027636	-7.4871	0.069393	1199.9
286.73570	-57.292	0.41999	0.027617	-7.3447	0.069366	1200.1
287.73570	-57.935	0.41878	0.027538	-7.4342	0.069667	1200.1
288.73570	-57.842	0.41796	0.027485	-7.4313	0.070944	1200.2
289.73570	-58.066	0.41705	0.027424	-7.4518	0.071827	1200.2
290.73570	-58.268	0.41526	0.02731	-7.4725	0.072763	1200.2
291.73570	-58.166	0.41396	0.027223	-7.466	0.073696	1200.1
292.73570	-57.607	0.41289	0.027154	-7.3907	0.072571	1200
293.73570	-58.226	0.4117	0.02708	-7.471	0.073434	1200
294.73570	-57.449	0.41106	0.02704	-7.3658	0.072406	1200
295.73570	-57.953	0.41027	0.026985	-7.4345	0.072792	1200
296.73570	-57.125	0.40992	0.02696	-7.322	0.072172	1200
297.73570	-56.285	0.4096	0.026939	-7.2152	0.072673	1200
298.73570	-56.806	0.40874	0.026883	-7.2889	0.071344	1199.9
299.73570	-58.032	0.4074	0.026799	-7.4446	0.070629	1200
300.73570	-57.371	0.40744	0.026801	-7.3584	0.07021	1200.1
301.73570	-56.355	0.40736	0.026793	-7.2283	0.069901	1200.1
302.44450	-56.035	0.40707	0.026772	-7.1942	0.070618	1200
303.44450	-55.894	0.40678	0.026756	-7.17	0.069854	1200.1
303.87660	-55.742	0.4067	0.02675	-7.1491	0.069797	1200
304.87660	-57.761	0.40579	0.026693	-7.4094	0.068019	1200.1
305.87660	-57.493	0.40579	0.02669	-7.37	0.068865	1200.2
306.87660	-56.488	0.40563	0.026677	-7.2418	0.070326	1200.2
307.87660	-55.887	0.4054	0.026668	-7.1656	0.069836	1200.1
308.87660	-55.732	0.40557	0.026679	-7.1503	0.070549	1200
309.87660	-55.432	0.40582	0.026692	-7.1137	0.072175	1199.9
310.87660	-55.832	0.40577	0.026691	-7.1666	0.072101	1200
311.87660	-55.623	0.40549	0.026675	-7.1347	0.070871	1199.9
312.87660	-55.939	0.40545	0.026675	-7.1743	0.070125	1199.9
313.87660	-56.213	0.40563	0.026684	-7.2154	0.072154	1199.9
314.87660	-56.457	0.40579	0.026694	-7.2386	0.072882	1199.9
315.87660	-56.791	0.40561	0.026682	-7.2829	0.074556	1199.8
316.87660	-56.625	0.40549	0.026676	-7.2619	0.074773	1199.6
317.87660	-57.705	0.40556	0.02668	-7.3967	0.074206	1199.6
318.87660	-58.717	0.40582	0.026699	-7.5352	0.074927	1199.7
319.87660	-59.194	0.40597	0.026707	-7.5931	0.074616	1199.7
320.87660	-59.57	0.40594	0.026703	-7.6379	0.07318	1199.7
321.87660	-59.552	0.40581	0.026694	-7.6332	0.073587	1199.7
322.87660	-59.759	0.40583	0.026696	-7.6624	0.072453	1199.7
323.87660	-60.326	0.40613	0.026717	-7.7397	0.071602	1199.7
324.87660	-61.381	0.40631	0.026725	-7.8775	0.071807	1199.9
325.87660	-62.175	0.40622	0.026718	-7.9737	0.070666	1200
326.87660	-62.396	0.40616	0.026716	-7.9947	0.070302	1200.1
327.87660	-62.893	0.40624	0.026722	-8.0638	0.07	1200.1
328.87660	-63.213	0.4066	0.026746	-8.1122	0.069221	1200.3
329.87660	-63.802	0.40675	0.026753	-8.1858	0.068679	1200.3
330.87660	-63.735	0.40689	0.02676	-8.1791	0.070347	1200.2
331.87660	-63.23	0.40683	0.026756	-8.1047	0.072417	1200.1
332.87660	-61.578	0.40679	0.026754	-7.8997	0.073624	1199.8
333.87660	-61.2	0.40691	0.026763	-7.855	0.072762	1199.5
334.87660	-62.353	0.40713	0.026778	-7.9989	0.073159	1199.6
335.87660	-62.231	0.4072	0.026784	-7.9802	0.071993	1199.8
336.87660	-61.536	0.40733	0.026795	-7.8903	0.072388	1200
337.87660	-60.662	0.40752	0.026811	-7.7761	0.071681	1200
338.87660	-59.685	0.40766	0.026817	-7.6547	0.071253	1199.9
339.87660	-58.783	0.40781	0.026828	-7.5454	0.071609	1199.9
340.87660	-58.272	0.40794	0.026837	-7.4765	0.071652	1199.8
341.87660	-59.468	0.40782	0.026829	-7.6251	0.071082	1200
342.87660	-58.863	0.40785	0.026828	-7.5482	0.070513	1200.1
343.39350	-58.459	0.40784	0.026829	-7.5057	0.071105	1200.1
344.39350	-58.131	0.40788	0.026831	-7.4508	0.070323	1200.2
344.41870	-58.105	0.40791	0.026833	-7.4497	0.070349	1200.2
345.41870	-57.757	0.40777	0.026826	-7.4061	0.070624	1200.4
346.41870	-58.515	0.4075	0.026809	-7.5013	0.071354	1200.4
347.41870	-57.866	0.40738	0.026799	-7.4247	0.073029	1200.5
348.41870	-56.855	0.40731	0.026796	-7.2944	0.073814	1200.3
349.41870	-57.917	0.40703	0.026776	-7.4265	0.073407	1200.3
350.41870	-58.966	0.40711	0.026775	-7.5644	0.073164	1200.3
351.41870	-58.922	0.40731	0.026789	-7.5558	0.073727	1200.5
352.41870	-58.366	0.40752	0.026802	-7.4795	0.072583	1200.6
353.41870	-57.539	0.40751	0.026805	-7.3885	0.073138	1200.5
354.41870	-56.708	0.40731	0.026794	-7.2759	0.071816	1200.4
355.41870	-56.309	0.40721	0.026784	-7.2242	0.071292	1200.4
356.41870	-57.029	0.40717	0.026778	-7.3143	0.072088	1200.4
357.41870	-56.048	0.40734	0.026792	-7.1863	0.071239	1200.5
358.41870	-56.554	0.40626	0.026724	-7.2528	0.070987	1200.4
359.41870	-57.643	0.40471	0.026625	-7.3927	0.070601	1200.3
360.41870	-58.162	0.40345	0.026538	-7.4629	0.070789	1200.2
361.41870	-58.788	0.40219	0.026455	-7.5395	0.073368	1200.2
362.41870	-58.282	0.40129	0.026401	-7.4693	0.074779	1200
363.41870	-58.176	0.39988	0.026316	-7.4519	0.074322	1199.9
364.41870	-58.887	0.3985	0.026218	-7.5477	0.074741	1199.9
365.41870	-57.778	0.39836	0.026209	-7.4087	0.074612	1200
366.41870	-58.553	0.39747	0.026155	-7.5091	0.075402	1200
367.41870	-58.983	0.3962	0.026073	-7.5587	0.074321	1200
368.41870	-58.293	0.39606	0.026062	-7.4691	0.073695	1200
369.41870	-57.245	0.39599	0.026059	-7.3339	0.073889	1199.9
370.41870	-58.932	0.39427	0.025949	-7.5474	0.073337	1199.9
371.41870	-58.711	0.394	0.025928	-7.5225	0.072818	1200.1
372.41870	-57.919	0.39401	0.02593	-7.4212	0.072801	1200
373.41870	-56.989	0.39357	0.025902	-7.3042	0.073035	1200
374.41870	-59.089	0.39253	0.025832	-7.5705	0.072422	1199.8
375.41870	-59.868	0.39268	0.025841	-7.6705	0.072094	1199.9
376.41870	-60.381	0.39279	0.02585	-7.7345	0.070903	1200.1
377.41870	-60.556	0.39247	0.025829	-7.7554	0.070618	1200.1
378.41870	-61.168	0.39252	0.025828	-7.8365	0.071879	1200
379.41870	-61.927	0.39287	0.025851	-7.9408	0.071909	1199.8
380.41870	-62.687	0.39307	0.025865	-8.0344	0.07401	1199.9
381.41870	-62.761	0.39296	0.025861	-8.042	0.075247	1199.7
382.41870	-63.606	0.39285	0.025851	-8.1478	0.075976	1199.7
383.41870	-64.345	0.39304	0.025862	-8.241	0.075727	1199.8
384.32790	-64.435	0.39325	0.025875	-8.2586	0.074825	1199.9
385.32790	-65.174	0.39341	0.025889	-8.3575	0.0753	1199.9
386.32790	-66.145	0.39331	0.025882	-8.4826	0.074919	1200
387.32790	-66.7	0.39317	0.025874	-8.5476	0.074877	1199.9
388.32790	-67.638	0.39331	0.025883	-8.6676	0.072957	1200
388.56450	-67.8	0.39333	0.025884	-8.6885	0.074056	1200
389.56450	-68.089	0.39351	0.025895	-8.7241	0.07427	1199.9
390.56450	-68.016	0.39363	0.025901	-8.7135	0.072748	1199.8
391.56450	-68.377	0.39365	0.025905	-8.7645	0.07333	1199.6
392.56450	-69.329	0.39384	0.025918	-8.8857	0.0723	1199.6
393.56450	-70.373	0.39394	0.025926	-9.0179	0.075432	1199.7
394.56450	-70.722	0.39402	0.025929	-9.0618	0.07618	1199.9
395.56450	-70.612	0.39403	0.025931	-9.0485	0.077336	1199.9
396.56450	-70.325	0.39394	0.025927	-9.0078	0.076822	1200
397.56450	-70.245	0.39402	0.02593	-9.0059	0.076605	1199.9
398.56450	-70.64	0.394	0.025928	-9.0549	0.077323	1200
399.56450	-70.419	0.39396	0.025923	-9.0233	0.07707	1200
400.56450	-70.229	0.39389	0.02592	-9.0004	0.076229	1200
401.56450	-69.706	0.39371	0.025906	-8.9347	0.076454	1200
402.56450	-68.392	0.3937	0.025904	-8.7693	0.075908	1200
403.56450	-67.854	0.39367	0.025903	-8.7012	0.075539	1200
404.56450	-66.574	0.39363	0.025903	-8.5316	0.075533	1200
405.56450	-65.525	0.39368	0.025907	-8.3923	0.074712	1199.9
406.56450	-64.515	0.39383	0.025917	-8.2631	0.074342	1199.9
407.56450	-63.175	0.39403	0.02593	-8.1026	0.074242	1199.9
408.56450	-61.837	0.39407	0.025929	-7.931	0.074078	1199.9
409.56450	-60.671	0.39396	0.02592	-7.778	0.074635	1200
410.56450	-59.792	0.39375	0.025909	-7.6631	0.074108	1200.1
411.56450	-60.054	0.3931	0.025867	-7.6943	0.073848	1200.1
412.56450	-59.251	0.39276	0.025848	-7.5976	0.076549	1200.2
413.56450	-58.728	0.39261	0.025839	-7.5273	0.079259	1200.2
414.56450	-57.897	0.39212	0.025807	-7.4194	0.079045	1200.2
415.56450	-57.397	0.39108	0.025737	-7.3523	0.077183	1200.2
416.56450	-56.449	0.39021	0.025683	-7.2269	0.075654	1200.1
417.56450	-57.156	0.38898	0.025604	-7.3264	0.075425	1200.1
418.56450	-56.219	0.3886	0.025578	-7.2055	0.0754	1200.4
419.56450	-56.99	0.38746	0.025503	-7.3023	0.075213	1200.7
420.56450	-56.195	0.38681	0.025464	-7.1943	0.075214	1200.5
421.56450	-58.849	0.38116	0.025093	-7.5324	0.077157	1197.3
422.56450	-59.705	0.37499	0.024693	-7.6413	0.077226	1191.9
423.56450	-60.175	0.37015	0.024381	-7.6953	0.077572	1185.9
424.56450	-60.352	0.36592	0.024102	-7.7181	0.077707	1180.2
425.27670	-60.436	0.36249	0.023877	-7.731	0.077058	1176.3
426.27670	-60.636	0.35694	0.023516	-7.7543	0.079375	1170.9
427.27670	-60.884	0.35202	0.023199	-7.786	0.079318	1165.7
427.70760	-60.844	0.35004	0.023069	-7.7782	0.079183	1163.6
428.70760	-60.979	0.3454	0.022765	-7.7915	0.079739	1158.6
429.70760	-61.113	0.34063	0.02245	-7.8093	0.079126	1153.6
430.70760	-61.295	0.33576	0.022135	-7.8213	0.080231	1148.5
431.70760	-61.121	0.33126	0.021844	-7.7981	0.079737	1143.5
432.70760	-61.261	0.32668	0.021544	-7.8197	0.080216	1138.4
433.70760	-61.509	0.32214	0.021245	-7.8498	0.079438	1133.4
434.70760	-61.599	0.31775	0.020959	-7.8592	0.080121	1128.4
435.70760	-61.751	0.31315	0.02066	-7.8692	0.079445	1123.4
436.70760	-61.706	0.30877	0.020376	-7.8577	0.079667	1118.4
437.70760	-61.696	0.3046	0.020104	-7.8678	0.080415	1113.3
438.70760	-61.668	0.30068	0.019848	-7.86	0.080441	1108.3
439.70760	-61.781	0.2963	0.019558	-7.8689	0.081953	1103.4
440.70760	-61.999	0.029158	0.0019237	-7.7526	0.065928	1098.9
441.10000	-65.12	-0.00064186	-3.2098e-05	-8.1073	0.07688	1097.5
441.10500	-63.381	0.0023247	0.00011011	-7.9825	0.07864	1097.5
441.11000	-63.736	-0.0013665	-9.8484e-05	-7.9735	0.072132	1097.5
441.11500	-65.945	0.0014292	7.1444e-05	-8.2652	0.054074	1097.5
441.12000	-66.468	-0.00084948	-4.6767e-05	-8.3122	0.018859	1097.4
441.12500	-64.667	0.0015701	0.00010447	-7.9983	-0.038263	1097.4
441.13000	-58.463	-0.001516	-0.00010663	-7.2107	-0.1099	1097.3
441.13500	-59.969	0.0017832	0.00010241	-7.4168	-0.16667	1097.2
441.14000	-63.121	-0.00038813	-3.2069e-05	-8.0346	-0.21436	1097.2
441.14500	-66.371	0.0025567	0.00015757	-8.491	-0.27343	1097.2
441.15000	-67.836	-0.00099291	-5.9859e-05	-8.4724	-0.33284	1097.3
441.15500	-67.369	0.001558	9.5862e-05	-8.2924	-0.38465	1097.3
441.16000	-64.681	-0.00072274	-4.6838e-05	-8.1111	-0.44903	1097.3
441.16500	-63.514	0.0018524	9.7763e-05	-7.9997	-0.51267	1097.3
441.17000	-61.819	-0.0013848	-0.00011089	-7.6724	-0.56962	1097.3
441.17500	-62.85	0.0022104	0.00015689	-7.7872	-0.61963	1097.3
441.18000	-62.093	-0.0005697	-1.4387e-05	-7.867	-0.67727	1097.3
441.18500	-64.772	0.0025572	0.00015977	-8.1666	-0.73894	1097.3
441.19000	-67.504	-0.0011416	-8.9433e-05	-8.4909	-0.80125	1097.3
441.19500	-69.654	0.0018764	9.9151e-05	-8.7168	-0.8558	1097.3
441.20000	-67.316	-0.00091857	-4.8029e-05	-8.3119	-0.9165	1097.3
441.20500	-62.511	0.001812	0.0001048	-7.7997	-0.98031	1097.2
441.21000	-60.376	-0.0015226	-0.00010112	-7.5245	-1.0408	1097.2
441.21500	-62.338	0.0016241	8.6737e-05	-7.7488	-1.0958	1097.1
441.22000	-62.491	-0.00045023	-3.9648e-05	-7.9161	-1.1498	1097.1
441.22500	-63.831	0.0023298	0.00014414	-8.1272	-1.2032	1097.1
441.23000	-67.359	-0.0012181	-7.2398e-05	-8.5186	-1.2636	1097.1
441.23500	-70.651	0.0015769	9.5388e-05	-8.7475	-1.3196	1097.2
441.24000	-67.389	-0.00088	-5.4482e-05	-8.2913	-1.3789	1097.2
441.24500	-62.928	0.0016093	6.2992e-05	-7.8574	-1.444	1097.2
441.25000	-61.083	-0.0016594	-9.7104e-05	-7.5998	-1.4994	1097.2
441.25500	-63.868	0.0020503	0.00013552	-7.9142	-1.5475	1097.2
441.26000	-63.637	-0.00061395	-3.9488e-05	-7.9525	-1.6057	1097.2
441.26500	-63.258	0.0021956	0.00013376	-8.0449	-1.6767	1097.2
441.27000	-65.589	-0.0012269	-8.9349e-05	-8.282	-1.7308	1097.2
441.27500	-69.993	0.0017585	9.1791e-05	-8.7259	-1.782	1097.2
441.28000	-68.02	-0.0007183	-3.9375e-05	-8.3973	-1.8324	1097.2
441.28500	-62.929	0.0018335	0.00012244	-7.8241	-1.8946	1097.5
441.29000	-64.004	-0.0016541	-9.2422e-05	-8.0246	-1.9626	1097.9
441.29500	-88.452	0.001493	7.0617e-05	-10.849	-2.0196	1097.9
441.30000	-199.33	-0.0013384	-9.336e-05	-24.582	-2.0703	1097.6
441.30500	-291.81	-0.040805	-0.0027064	-36.305	-2.1273	1097.5
441.31000	-329.04	-0.092569	-0.006154	-40.828	-2.1877	1097.7
441.31500	-358.2	-0.1377	-0.0092017	-44.317	-2.2424	1097.8
441.32000	-390	-0.18939	-0.012657	-48.2	-2.2995	1097.8
441.32501	-416.38	-0.24092	-0.01617	-51.287	-2.3607	1097.9
441.33001	-434.97	-0.29767	-0.019985	-53.164	-2.4204	1098.1
441.33501	-447.36	-0.34708	-0.023364	-54.352	-2.4787	1098.2
441.34001	-456.15	-0.39937	-0.026923	-55.262	-2.5363	1098.2
441.34501	-462.95	-0.44553	-0.030134	-56.049	-2.5893	1098.3
441.35001	-473.68	-0.49869	-0.033776	-57.186	-2.6453	1098.4
441.35501	-491.05	-0.54494	-0.036978	-59.099	-2.7021	1098.5
441.36001	-513.65	-0.60013	-0.040784	-61.759	-2.7623	1098.6
441.36501	-532.31	-0.65068	-0.044309	-63.723	-2.8212	1098.7
441.37001	-549.39	-0.70735	-0.048255	-65.332	-2.8817	1098.8
441.37501	-551.51	-0.7583	-0.051887	-65.23	-2.9392	1099
441.38001	-556.61	-0.80436	-0.055076	-65.567	-2.9902	1099.1
441.38501	-574.26	-0.85307	-0.058517	-67.528	-3.0474	1099.1
441.39001	-580.39	-0.91162	-0.062627	-68.049	-3.1094	1099.1
441.39501	-594.63	-0.96352	-0.066374	-69.497	-3.1697	1099.1
441.40001	-605.45	-1.0167	-0.070152	-70.649	-3.2258	1099.2
441.40501	-630.56	-1.0644	-0.073592	-73.325	-3.2848	1099.3
441.41001	-636.92	-1.1215	-0.077662	-73.614	-3.3456	1099.4
441.41501	-641.36	-1.1666	-0.080934	-73.633	-3.3978	1099.5
441.42001	-659.1	-1.2183	-0.084676	-75.413	-3.4543	1099.5
441.42501	-670.39	-1.278	-0.089039	-76.477	-3.5249	1099.6
441.43001	-661.75	-1.3364	-0.093277	-75.284	-3.587	1099.7
441.43501	-658.66	-1.3772	-0.096291	-74.762	-3.6326	1099.8
441.44001	-675.31	-1.4189	-0.099331	-76.488	-3.6782	1099.8
441.44501	-706.15	-1.4663	-0.10283	-79.77	-3.7346	1099.9
441.45001	-722.41	-1.5283	-0.10741	-81.039	-3.8037	1099.9
441.45501	-717.34	-1.5781	-0.11116	-79.965	-3.8614	1100
441.46001	-726.32	-1.6273	-0.11479	-80.644	-3.9148	1100
441.46501	-734.47	-1.6785	-0.11864	-81.334	-3.972	1100.1
441.47001	-738.53	-1.7359	-0.12293	-81.473	-4.0386	1100.2
441.47501	-737.85	-1.7891	-0.12698	-81.214	-4.0968	1100.3
441.48001	-743.62	-1.8311	-0.13015	-81.653	-4.1439	1100.3
441.48501	-772.11	-1.8767	-0.13363	-84.548	-4.1965	1100.2
441.49001	-791.96	-1.9366	-0.13818	-86.172	-4.2629	1100.2
441.49501	-791.36	-1.9902	-0.1423	-85.543	-4.3244	1100.2
441.50001	-798.4	-2.0446	-0.14646	-85.919	-4.3851	1100.3
441.50501	-793.86	-2.093	-0.15027	-85.16	-4.4384	1100.3
441.51001	-791.16	-2.144	-0.15421	-84.619	-4.4955	1100.4
441.51501	-801.54	-2.1906	-0.15785	-85.478	-4.5489	1100.5
441.52001	-815.24	-2.2447	-0.16204	-86.731	-4.6113	1100.6
441.52501	-830.7	-2.2908	-0.16571	-88.098	-4.662	1100.7
441.53001	-845.81	-2.3458	-0.17001	-89.177	-4.7245	1100.7
441.53501	-850.21	-2.3977	-0.17416	-89.022	-4.7828	1100.7
441.54001	-851.6	-2.4499	-0.17827	-88.77	-4.8405	1100.8
441.54501	-849.19	-2.4978	-0.18211	-88.218	-4.8957	1100.8
441.55001	-847.99	-2.5488	-0.18618	-87.793	-4.9521	1100.9
441.55501	-848.47	-2.5976	-0.19014	-87.66	-5.0074	1101
441.56001	-863.75	-2.6449	-0.19394	-89.004	-5.0599	1101
441.56501	-890.47	-2.6976	-0.19822	-91.411	-5.1245	1101
441.57001	-899.94	-2.7597	-0.20325	-91.818	-5.1915	1101
441.57501	-883.76	-2.806	-0.20707	-89.595	-5.242	1101.1
441.58001	-894.38	-2.8493	-0.21061	-90.279	-5.2891	1101.2
441.58501	-908.1	-2.9017	-0.21495	-91.271	-5.3488	1101.2
441.59001	-896.93	-2.9599	-0.21977	-89.815	-5.4148	1101.1
441.59501	-891.73	-3.0081	-0.22377	-89.055	-5.4668	1101.1
441.60001	-911.27	-3.0579	-0.22791	-90.73	-5.5232	1101.2
441.60501	-936.97	-3.1168	-0.23287	-92.89	-5.5895	1101.3
441.61001	-935.24	-3.175	-0.23778	-92.189	-5.6542	1101.4
441.61501	-931.36	-3.222	-0.2418	-91.2	-5.7067	1101.4
441.62001	-940.51	-3.2711	-0.24594	-91.623	-5.7619	1101.5
441.62501	-942.69	-3.3233	-0.25039	-91.484	-5.8179	1101.5
441.63001	-939.01	-3.377	-0.255	-90.746	-5.8787	1101.5
441.63501	-930.93	-3.4314	-0.25972	-89.644	-5.9418	1101.5
441.64001	-948.16	-3.4818	-0.26408	-91.045	-5.997	1101.5
441.64501	-968.7	-3.5398	-0.26912	-92.655	-6.0608	1101.6
441.65001	-956.93	-3.5903	-0.27356	-91.002	-6.1132	1101.7
441.65501	-955.42	-3.6338	-0.27734	-90.308	-6.1628	1101.8
441.66001	-974.62	-3.682	-0.28158	-91.631	-6.2184	1101.9
441.66501	-974.41	-3.7367	-0.28648	-91.208	-6.2764	1101.9
441.67001	-967.49	-3.7922	-0.2914	-90.159	-6.3405	1101.8
441.67501	-957.91	-3.8429	-0.29593	-88.936	-6.3947	1101.8
441.68001	-978.38	-3.8952	-0.3006	-90.588	-6.4558	1101.9
441.68501	-998.49	-3.9535	-0.30589	-92.122	-6.5226	1101.9
441.69001	-989.89	-4.0062	-0.31067	-90.711	-6.5774	1101.9
441.69501	-986.67	-4.0496	-0.31464	-89.833	-6.626	1101.9
441.70001	-994.78	-4.0959	-0.31886	-90.136	-6.6755	1101.9
441.70501	-1008.7	-4.1452	-0.32338	-91.028	-6.7344	1102
441.71001	-995	-4.2015	-0.32858	-89.29	-6.7942	1102
441.71501	-989.33	-4.2523	-0.33332	-88.439	-6.8537	1102.1
441.72001	-1005.1	-4.3036	-0.33808	-89.636	-6.908	1102.1
441.72501	-1025	-4.3574	-0.34313	-91.038	-6.9701	1102.1
441.73001	-1024	-4.4091	-0.34799	-90.399	-7.0266	1102.1
441.73501	-1023.8	-4.4555	-0.35239	-89.768	-7.0803	1102.1
441.74001	-1043.3	-4.5052	-0.35711	-90.986	-7.1332	1102.2
441.74501	-1060.2	-4.5637	-0.36272	-91.986	-7.1974	1102.2
441.75001	-1047.3	-4.6244	-0.36853	-90.345	-7.2674	1102.2
441.75501	-1022.1	-4.6748	-0.37341	-87.804	-7.32	1102.2
441.76002	-1035	-4.7171	-0.37749	-88.71	-7.3688	1102.2
441.76502	-1066.8	-4.7653	-0.3822	-91.084	-7.4253	1102.2
441.77002	-1080.9	-4.8226	-0.38783	-91.699	-7.4886	1102.2
441.77502	-1074.8	-4.8751	-0.39301	-90.582	-7.5488	1102.2
441.78002	-1085.6	-4.9218	-0.39761	-90.965	-7.6007	1102.2
441.78502	-1105.9	-4.975	-0.40289	-92.133	-7.6607	1102.2
441.79002	-1091.9	-5.0296	-0.40836	-90.452	-7.72	1102.3
441.79502	-1086.4	-5.0838	-0.41384	-89.641	-7.7824	1102.3
441.80002	-1098.2	-5.1343	-0.41892	-90.304	-7.8389	1102.3
441.80502	-1125.1	-5.185	-0.42409	-92.101	-7.8952	1102.3
441.81002	-1124.3	-5.2352	-0.42918	-91.542	-7.951	1102.3
441.81502	-1131.9	-5.2822	-0.43401	-91.557	-8.0047	1102.3
441.82002	-1153.8	-5.3333	-0.43928	-92.748	-8.0629	1102.3
441.82502	-1161.9	-5.3859	-0.44478	-92.778	-8.1239	1102.3
441.83002	-1152.5	-5.4378	-0.45019	-91.584	-8.1816	1102.4
441.83502	-1140.8	-5.4878	-0.45543	-90.323	-8.2376	1102.4
441.84002	-1165.3	-5.5357	-0.46044	-91.914	-8.2912	1102.4
441.84502	-1202.6	-5.5924	-0.46646	-94.305	-8.3571	1102.3
441.85002	-1200.6	-5.6486	-0.47246	-93.606	-8.42	1102.2
441.85502	-1187.9	-5.6908	-0.47699	-92.087	-8.4668	1102.2
441.86002	-1214.3	-5.7334	-0.48156	-93.56	-8.5142	1102.2
441.86502	-1244.4	-5.7869	-0.48732	-95.154	-8.5753	1102.3
441.87002	-1234	-5.8411	-0.49325	-93.909	-8.6388	1102.4
441.87502	-1234.8	-5.895	-0.49915	-93.604	-8.6986	1102.4
441.88002	-1248.5	-5.9455	-0.50473	-94.182	-8.7574	1102.3
441.88502	-1272.3	-5.9964	-0.51037	-95.511	-8.8123	1102.2
441.89002	-1281.5	-6.0453	-0.51579	-95.671	-8.8699	1102.2
441.89502	-1290.2	-6.093	-0.52112	-95.728	-8.9234	1102.3
441.90002	-1318	-6.1407	-0.5265	-97.113	-8.9793	1102.3
441.90502	-1346.3	-6.1939	-0.53255	-98.462	-9.037	1102.3
441.91002	-1344.3	-6.2512	-0.53908	-97.717	-9.1032	1102.3
441.91502	-1328.7	-6.3033	-0.54501	-96.139	-9.1604	1102.3
441.92002	-1354.1	-6.352	-0.55063	-97.528	-9.2169	1102.3
441.92502	-1392.6	-6.4061	-0.55693	-99.688	-9.28	1102.3
441.93002	-1396.3	-6.4568	-0.56286	-99.453	-9.3347	1102.2
441.93502	-1414.9	-6.5048	-0.56848	-100.23	-9.389	1102.2
441.94002	-1422	-6.5494	-0.57375	-99.974	-9.4405	1102.2
441.94502	-1456.7	-6.5958	-0.57925	-101.59	-9.4961	1102.3
441.95002	-1479.8	-6.6536	-0.58613	-102.62	-9.5612	1102.3
441.95502	-1454.7	-6.7083	-0.59274	-100.46	-9.6199	1102.3
441.96002	-1464.4	-6.7486	-0.59761	-100.64	-9.6643	1102.2
441.96502	-1512	-6.7967	-0.60346	-103.34	-9.7218	1102.1
441.97002	-1553.6	-6.85	-0.60995	-105.54	-9.7846	1102.1
441.97502	-1567.2	-6.9034	-0.61655	-105.76	-9.8437	1102
441.98002	-1591.8	-6.9505	-0.62238	-106.57	-9.8949	1102.1
441.98502	-1612.7	-6.9982	-0.62834	-107.18	-9.9504	1102.1
441.99002	-1630.1	-7.0479	-0.63455	-107.68	-10.009	1102.1
441.99502	-1641.1	-7.1038	-0.64159	-107.83	-10.072	1102.1
442.00002	-1662.8	-7.1529	-0.64783	-108.66	-10.127	1102.1
442.00502	-1705.2	-7.2031	-0.65427	-110.75	-10.181	1102.1
442.01002	-1736.5	-7.2528	-0.66066	-112.13	-10.24	1102.1
442.01502	-1767.8	-7.3037	-0.66721	-113.4	-10.297	1102.1
442.02002	-1815.8	-7.3521	-0.67349	-115.53	-10.354	1102.1
442.02502	-1870.3	-7.4096	-0.68105	-117.94	-10.42	1102.1
442.03002	-1869.9	-7.4636	-0.68822	-117.12	-10.479	1102.2
442.03502	-1864.7	-7.5124	-0.69473	-116.18	-10.535	1102.2
442.04002	-1901.7	-7.5578	-0.70083	-117.84	-10.587	1102.1
442.04502	-1970	-7.6107	-0.7079	-121.25	-10.65	1102.1
442.05002	-1997.5	-7.6613	-0.71479	-122.2	-10.706	1102.1
442.05502	-2037.4	-7.7095	-0.7214	-123.81	-10.762	1102.1
442.06002	-2080.3	-7.7571	-0.72795	-125.41	-10.818	1102.2
442.06502	-2117.9	-7.8029	-0.73433	-126.6	-10.869	1102.2
442.07002	-2138.6	-7.851	-0.74102	-127.04	-10.924	1102.1
442.07502	-2161	-7.8992	-0.74778	-127.68	-10.98	1102.1
442.08002	-2239.4	-7.951	-0.75503	-131.39	-11.043	1102.1
442.08502	-2297.8	-8.0071	-0.76308	-133.77	-11.105	1102.1
442.09002	-2339.6	-8.0553	-0.77004	-135.43	-11.163	1102.1
442.09502	-2387.7	-8.1026	-0.77682	-137.3	-11.217	1102.1
442.10002	-2460.3	-8.1502	-0.78374	-140.23	-11.274	1102.1
442.10502	-2504.8	-8.1996	-0.79097	-141.52	-11.333	1102.1
442.11002	-2517	-8.2448	-0.79766	-141.3	-11.384	1102.2
442.11502	-2547.6	-8.2916	-0.80465	-142.17	-11.436	1102.1
442.12002	-2639.5	-8.3419	-0.8121	-146.28	-11.497	1102
442.12502	-2723.6	-8.3989	-0.82069	-149.72	-11.562	1101.9
442.13002	-2770.4	-8.4485	-0.82824	-151.28	-11.623	1101.9
442.13502	-2795.4	-8.4918	-0.83489	-151.66	-11.672	1101.9
442.14002	-2858.3	-8.5314	-0.84101	-153.86	-11.717	1101.9
442.14502	-2955.2	-8.5784	-0.84831	-157.67	-11.774	1101.2
442.15002	-2940	-8.6226	-0.85524	-155.92	-11.825	1099.9
442.15160	-2931.4	-8.6286	-0.85618	-155.33	-11.831	1099.5
442.65160	-1385.7	-8.7552	-0.87631	-72.119	-11.908	1029.7
443.15160	-1028.6	-8.7635	-0.87763	-53.404	-11.902	949.34
443.65160	-905.46	-8.7626	-0.87748	-47.013	-11.896	898.27
444.15160	-794.15	-8.7604	-0.87712	-41.249	-11.888	864.02
444.65160	-690.53	-8.757	-0.87657	-35.884	-11.881	846.86
445.15160	-605.63	-8.7545	-0.87619	-31.486	-11.875	836.06
445.65160	-516.53	-8.7515	-0.87571	-26.867	-11.867	826.94
446.15160	-451.66	-8.7509	-0.87561	-23.493	-11.863	815.48
446.65160	-366.02	-8.7484	-0.87522	-19.049	-11.855	806.38
447.15160	-302.27	-8.7478	-0.8751	-15.732	-11.849	797.48
447.65160	-240.71	-8.7467	-0.87493	-12.531	-11.841	788.77
448.15160	-184.15	-8.7455	-0.87474	-9.5872	-11.835	779.53
448.65160	-137.23	-8.7446	-0.87461	-7.148	-11.828	770.17
449.15160	-100.03	-8.7444	-0.87457	-5.2091	-11.821	761.03
449.65160	-77.357	-8.7465	-0.87491	-4.0248	-11.813	751.31
450.15160	-67.373	-8.7503	-0.87551	-3.5063	-11.806	741.88
450.65160	-60.812	-8.7533	-0.876	-3.1616	-11.8	731.91
451.15160	-56.521	-8.7552	-0.8763	-2.9365	-11.793	722.19
451.65160	-53.54	-8.7565	-0.8765	-2.7809	-11.786	711.85
452.15160	-52.045	-8.7574	-0.87665	-2.7034	-11.779	702.04
452.65160	-51.11	-8.7578	-0.87673	-2.6573	-11.771	691.85
453.15160	-51.113	-8.7583	-0.87679	-2.653	-11.763	681.92
453.65160	-51.104	-8.7586	-0.87685	-2.6562	-11.757	671.47
454.15160	-50.863	-8.7589	-0.87691	-2.6412	-11.75	661.88
454.65160	-50.973	-8.7592	-0.87695	-2.6476	-11.741	652.79
455.15160	-50.826	-8.7594	-0.87698	-2.6437	-11.735	643.3
455.65160	-51.043	-8.7598	-0.87703	-2.6488	-11.728	634.49
456.15160	-51.157	-8.7599	-0.87705	-2.6591	-11.72	626.11
456.65160	-51.268	-8.7602	-0.8771	-2.6628	-11.713	617.58
457.15160	-51.596	-8.7602	-0.87711	-2.6804	-11.706	609.68
457.65160	-51.743	-8.7605	-0.87715	-2.6879	-11.698	601.91
458.15160	-52.013	-8.7605	-0.87716	-2.7009	-11.691	594.04
458.65160	-52.118	-8.7607	-0.87719	-2.7068	-11.684	586.56
459.15160	-52.159	-8.7609	-0.87722	-2.7091	-11.678	579.3
459.65160	-52.242	-8.7611	-0.87725	-2.714	-11.672	571.81
460.15160	-51.974	-8.7613	-0.87727	-2.7014	-11.665	564.74
460.65160	-51.972	-8.7614	-0.8773	-2.6985	-11.656	558
461.15160	-51.716	-8.7615	-0.87732	-2.6872	-11.649	551.48
461.65160	-51.749	-8.7617	-0.87734	-2.6857	-11.644	545.11
462.15160	-51.663	-8.7618	-0.87737	-2.6834	-11.635	538.88
462.65160	-51.469	-8.7619	-0.87738	-2.6743	-11.628	532.94
463.15160	-51.585	-8.7621	-0.87741	-2.678	-11.619	527.29
463.65160	-51.442	-8.7623	-0.87744	-2.6747	-11.613	521.58
464.15160	-51.523	-8.7623	-0.87743	-2.6753	-11.605	516.37
464.65160	-51.549	-8.7624	-0.87746	-2.6787	-11.599	510.95
465.15160	-51.429	-8.7625	-0.87747	-2.6726	-11.593	505.47
465.65160	-51.519	-8.7626	-0.87748	-2.6732	-11.583	500.54
466.15160	-51.42	-8.7628	-0.87751	-2.6729	-11.576	495.55
466.65160	-51.429	-8.7628	-0.87753	-2.6689	-11.569	491.01
467.15160	-51.498	-8.7629	-0.87754	-2.6728	-11.561	486.49
467.65160	-51.48	-8.763	-0.87754	-2.6711	-11.554	482.34
468.15160	-51.551	-8.763	-0.87755	-2.6773	-11.549	478.38
468.65160	-51.507	-8.7631	-0.87756	-2.6747	-11.539	474.38
469.15160	-51.625	-8.7632	-0.87758	-2.6773	-11.534	470.65
469.65160	-51.444	-8.7632	-0.87758	-2.6738	-11.525	467.18
470.15160	-51.466	-8.7633	-0.87759	-2.6685	-11.517	464.07
470.65160	-51.591	-8.7634	-0.8776	-2.6765	-11.511	461
471.15160	-51.404	-8.7634	-0.87761	-2.668	-11.503	458.34
471.65160	-51.593	-8.7634	-0.87761	-2.6794	-11.496	456.01
472.15160	-51.414	-8.7634	-0.87761	-2.6716	-11.489	453.82
472.65160	-51.484	-8.7636	-0.87764	-2.6731	-11.482	451.88
473.15160	-51.572	-8.7636	-0.87763	-2.6794	-11.476	450.45
473.65160	-51.542	-8.7635	-0.87763	-2.6744	-11.471	449.31
474.15160	-51.517	-8.7636	-0.87765	-2.6733	-11.462	448.31
474.65160	-51.296	-8.7636	-0.87765	-2.666	-11.455	447.75
475.15160	-51.593	-8.7637	-0.87766	-2.6759	-11.45	447.51
475.65160	-51.435	-8.7637	-0.87766	-2.6707	-11.442	447.14
476.15160	-51.461	-8.7637	-0.87766	-2.6706	-11.435	446.92
476.65160	-51.659	-8.7638	-0.87768	-2.6849	-11.426	446.31
477.15160	-51.388	-8.7638	-0.87767	-2.6686	-11.42	445.48
477.65160	-51.46	-8.7638	-0.87768	-2.6705	-11.414	443.99
478.15160	-51.394	-8.7638	-0.87769	-2.6705	-11.407	441.75
478.65160	-51.55	-8.7639	-0.87769	-2.6724	-11.398	438.92
479.15160	-51.437	-8.7638	-0.87768	-2.6711	-11.393	435.23
479.65160	-51.363	-8.7638	-0.87768	-2.6667	-11.385	431.24
480.15160	-51.585	-8.7639	-0.8777	-2.6787	-11.376	426.58
480.65160	-51.393	-8.7638	-0.87767	-2.669	-11.371	421.75
481.15160	-51.468	-8.7637	-0.87766	-2.67	-11.361	416.63
481.65160	-51.377	-8.7637	-0.87767	-2.6695	-11.356	411.4
482.15160	-51.366	-8.7637	-0.87766	-2.6662	-11.347	405.96
482.65160	-51.458	-8.7637	-0.87767	-2.6721	-11.339	400.46
483.15160	-51.183	-8.7636	-0.87765	-2.6576	-11.333	395.16
483.65160	-51.43	-8.7636	-0.87765	-2.6703	-11.325	389.72
484.15160	-51.206	-8.7634	-0.87762	-2.659	-11.319	384.29
484.65160	-51.19	-8.7633	-0.87761	-2.6575	-11.312	379.02
485.15160	-51.191	-8.7632	-0.87759	-2.6594	-11.305	373.69
485.65160	-51.201	-8.7632	-0.87758	-2.659	-11.297	368.35
486.15160	-51.242	-8.763	-0.87756	-2.6612	-11.29	363.14
486.65160	-50.937	-8.763	-0.87756	-2.6456	-11.283	358
487.15160	-51.035	-8.7629	-0.87753	-2.6498	-11.276	352.89
487.65160	-50.826	-8.7629	-0.87753	-2.6404	-11.269	348.09
488.15160	-50.78	-8.7628	-0.87752	-2.6334	-11.262	343.3
488.65160	-50.772	-8.7626	-0.87749	-2.6385	-11.255	338.67
489.15160	-50.621	-8.7625	-0.87747	-2.6285	-11.248	334.06
489.65160	-50.718	-8.7624	-0.87745	-2.6325	-11.241	329.36
490.15160	-50.506	-8.7623	-0.87743	-2.624	-11.235	324.93
490.65160	-50.633	-8.7621	-0.87741	-2.6292	-11.227	320.54
491.15160	-50.474	-8.762	-0.87739	-2.6238	-11.22	316.11
491.65160	-50.366	-8.762	-0.87739	-2.6185	-11.212	311.93
492.15160	-50.545	-8.762	-0.87739	-2.624	-11.205	307.87
492.65160	-50.306	-8.7619	-0.87737	-2.6127	-11.198	303.68
493.15160	-50.146	-8.7618	-0.87735	-2.6033	-11.191	299.44
493.65160	-49.809	-8.7617	-0.87733	-2.5875	-11.184	295.45
494.15160	-49.815	-8.7615	-0.87731	-2.5839	-11.177	291.48
494.65160	-49.839	-8.7615	-0.8773	-2.5908	-11.169	287.63
495.15160	-49.615	-8.7614	-0.87729	-2.5764	-11.161	283.82
495.65160	-49.684	-8.7614	-0.87728	-2.5797	-11.155	280.4
496.15160	-49.51	-8.7612	-0.87725	-2.5713	-11.147	276.93
496.65160	-49.415	-8.7611	-0.87725	-2.5672	-11.14	273.24
497.15160	-49.468	-8.761	-0.87723	-2.571	-11.132	270.02
497.65160	-49.201	-8.7611	-0.87724	-2.5543	-11.125	266.5
498.15160	-49.304	-8.7609	-0.87722	-2.5599	-11.118	263.26
498.65160	-49.045	-8.7609	-0.8772	-2.5497	-11.111	259.92
499.15160	-48.962	-8.7606	-0.87716	-2.5396	-11.104	256.84
499.65160	-48.903	-8.7605	-0.87716	-2.5406	-11.097	253.68
500.15160	-48.664	-8.7605	-0.87714	-2.5272	-11.089	250.26
500.65160	-48.726	-8.7604	-0.87713	-2.5301	-11.08	247.32
501.15160	-48.435	-8.7602	-0.87711	-2.5165	-11.076	244.43
501.65160	-48.418	-8.7602	-0.87711	-2.5146	-11.068	241.47
502.15160	-48.353	-8.7601	-0.87709	-2.5149	-11.059	238.75
502.65160	-48.141	-8.76	-0.87707	-2.5	-11.053	235.92
503.15160	-48.135	-8.7599	-0.87706	-2.5004	-11.046	233.19
503.65160	-47.837	-8.7598	-0.87703	-2.4848	-11.038	230.54
504.15160	-47.944	-8.7598	-0.87703	-2.4894	-11.032	227.85
504.65160	-47.706	-8.7596	-0.87701	-2.4818	-11.027	225.25
505.15160	-47.38	-8.7596	-0.877	-2.4612	-11.02	222.71
505.65160	-47.497	-8.7595	-0.87699	-2.4697	-11.013	220.18
506.15160	-47.156	-8.7593	-0.87697	-2.4495	-11.006	217.71
506.65160	-47.081	-8.7593	-0.87696	-2.4472	-10.999	215.27
507.15160	-46.945	-8.7591	-0.87692	-2.4406	-10.992	212.79
507.65160	-46.731	-8.7592	-0.87694	-2.4268	-10.983	210.44
508.15160	-46.717	-8.759	-0.87691	-2.4298	-10.978	208.27
508.65160	-46.473	-8.7589	-0.87689	-2.4175	-10.969	206.08
509.15160	-46.491	-8.7587	-0.87686	-2.4146	-10.962	203.85
509.65160	-46.19	-8.7586	-0.87685	-2.4008	-10.954	201.61
510.15160	-46.088	-8.7586	-0.87685	-2.3926	-10.948	199.46
510.65160	-46.071	-8.7585	-0.87683	-2.3949	-10.941	197.24
511.15160	-45.619	-8.7583	-0.8768	-2.3714	-10.934	195.24
511.65160	-45.646	-8.7582	-0.87678	-2.3683	-10.926	193.2
512.15160	-45.404	-8.7581	-0.87677	-2.3598	-10.919	191.21
512.65160	-45.392	-8.758	-0.87675	-2.3572	-10.913	189.18
513.15160	-45.228	-8.7579	-0.87674	-2.3524	-10.904	187.05
513.65160	-44.87	-8.7578	-0.87672	-2.334	-10.896	185.16
514.15160	-44.928	-8.7577	-0.8767	-2.3323	-10.888	183.15
514.65160	-44.633	-8.7575	-0.87668	-2.3238	-10.881	181.31
515.15160	-44.401	-8.7574	-0.87666	-2.3082	-10.874	179.46
515.65160	-44.446	-8.7574	-0.87665	-2.3115	-10.867	177.5
516.15160	-44.151	-8.7572	-0.87662	-2.2952	-10.859	175.73
516.65160	-44.035	-8.7571	-0.87661	-2.2889	-10.852	173.83
517.15160	-43.89	-8.7569	-0.87657	-2.2829	-10.846	172.09
517.65160	-43.651	-8.7568	-0.87656	-2.2661	-10.838	170.19
518.15160	-43.712	-8.7567	-0.87654	-2.271	-10.832	168.48
518.65160	-43.281	-8.7567	-0.87654	-2.25	-10.823	166.79
519.15160	-43.261	-8.7565	-0.87651	-2.2485	-10.815	164.97
519.65160	-43.048	-8.7564	-0.87649	-2.2401	-10.809	163.48
520.15160	-42.832	-8.7563	-0.87647	-2.2235	-10.802	161.83
520.65160	-42.758	-8.7563	-0.87647	-2.2261	-10.793	160.11
521.15160	-42.434	-8.7561	-0.87643	-2.2061	-10.787	158.54
521.65160	-42.446	-8.756	-0.87642	-2.2049	-10.779	156.93
522.15160	-42.199	-8.7559	-0.87641	-2.1963	-10.775	155.32
522.65160	-41.926	-8.7559	-0.87641	-2.1785	-10.767	153.83
523.15160	-42.007	-8.7556	-0.87637	-2.1821	-10.761	152.15
523.65160	-41.565	-8.7555	-0.87636	-2.1623	-10.753	150.76
524.15160	-41.596	-8.7554	-0.87633	-2.1595	-10.746	149.26
524.65160	-41.325	-8.7553	-0.87631	-2.1499	-10.738	147.78
525.15160	-41.062	-8.7553	-0.8763	-2.1348	-10.731	146.2
525.65160	-41.066	-8.755	-0.87627	-2.1349	-10.725	144.61
526.15160	-40.733	-8.7549	-0.87624	-2.121	-10.717	143.23
526.65160	-40.729	-8.7548	-0.87624	-2.1179	-10.71	142.11
527.15160	-40.458	-8.7547	-0.87621	-2.1052	-10.701	140.78
527.65160	-40.319	-8.7546	-0.87621	-2.0935	-10.694	139.43
528.15160	-40.16	-8.7546	-0.8762	-2.0867	-10.687	138.08
528.65160	-39.824	-8.7544	-0.87618	-2.0716	-10.68	136.76
529.15160	-39.881	-8.7544	-0.87617	-2.0703	-10.674	135.46
529.65160	-39.552	-8.7542	-0.87614	-2.0585	-10.666	134.13
530.15160	-39.367	-8.7541	-0.87612	-2.0446	-10.66	132.84
530.65160	-39.389	-8.754	-0.87611	-2.0488	-10.652	131.58
531.15160	-39.013	-8.7539	-0.87609	-2.0316	-10.641	130.36
531.65160	-38.972	-8.7539	-0.87609	-2.0232	-10.636	129.27
532.15160	-38.65	-8.7536	-0.87605	-2.0104	-10.629	128.18
532.65160	-38.636	-8.7535	-0.87603	-2.005	-10.622	126.95
533.15160	-38.56	-8.7534	-0.87602	-2.0065	-10.615	125.87
533.65160	-38.123	-8.7533	-0.87601	-1.9839	-10.609	124.89
534.15160	-38.153	-8.7532	-0.87599	-1.9831	-10.602	123.66
534.65160	-37.99	-8.7532	-0.87598	-1.9755	-10.595	122.5
535.15160	-37.768	-8.7529	-0.87594	-1.9623	-10.589	121.45
535.65160	-37.578	-8.7529	-0.87594	-1.9564	-10.581	120.51
536.15160	-37.322	-8.7527	-0.87591	-1.9414	-10.574	119.38
536.65160	-37.346	-8.7527	-0.8759	-1.9392	-10.566	118.56
537.15160	-37.13	-8.7525	-0.87588	-1.9349	-10.558	117.3
537.65160	-36.843	-8.7524	-0.87587	-1.9155	-10.55	116.35
538.15160	-36.896	-8.7524	-0.87585	-1.9203	-10.545	115.6
538.65160	-36.607	-8.7523	-0.87583	-1.9055	-10.537	114.5
539.15160	-36.596	-8.7521	-0.87581	-1.9036	-10.529	113.53
539.65160	-36.321	-8.7521	-0.8758	-1.8919	-10.522	112.72
540.15160	-36.128	-8.752	-0.87579	-1.8794	-10.515	111.69
540.65160	-35.998	-8.7519	-0.87578	-1.8726	-10.508	110.78
541.15160	-35.763	-8.7518	-0.87576	-1.8622	-10.499	109.92
541.65160	-35.754	-8.7517	-0.87574	-1.8565	-10.493	109.01
542.15160	-35.516	-8.7516	-0.87572	-1.8505	-10.486	108.14
542.65160	-35.212	-8.7516	-0.87571	-1.8308	-10.479	107.36
543.15160	-35.272	-8.7514	-0.8757	-1.8355	-10.471	106.5
543.65160	-34.831	-8.7512	-0.87567	-1.8161	-10.464	105.66
544.15160	-34.785	-8.7511	-0.87565	-1.8069	-10.457	104.87
544.65160	-34.451	-8.7507	-0.87557	-1.7939	-10.449	104.02
545.15160	-34.413	-8.7506	-0.87556	-1.7897	-10.441	103.23
545.65160	-34.592	-8.7504	-0.87553	-1.8018	-10.435	102.53
546.15160	-34.364	-8.7504	-0.87552	-1.79	-10.427	101.74
546.65160	-34.505	-8.7504	-0.87553	-1.7932	-10.419	100.98
547.15160	-34.407	-8.7504	-0.87552	-1.7911	-10.412	100.2
547.65160	-34.14	-8.7504	-0.87553	-1.7759	-10.405	99.516
548.15160	-34.37	-8.7505	-0.87555	-1.7861	-10.398	98.73
548.65160	-34.123	-8.7506	-0.87557	-1.7794	-10.391	97.993
549.15160	-34.076	-8.7506	-0.87557	-1.7721	-10.383	97.334
549.65160	-34.022	-8.7505	-0.87555	-1.771	-10.377	96.637
550.15160	-33.715	-8.7506	-0.87555	-1.7519	-10.369	96.016
550.65160	-33.688	-8.7506	-0.87556	-1.7518	-10.362	95.317
551.15160	-33.505	-8.7507	-0.87557	-1.7444	-10.354	94.605
551.65160	-33.393	-8.7506	-0.87556	-1.7353	-10.346	93.996
552.15160	-33.309	-8.7507	-0.87557	-1.7349	-10.34	93.342
552.65160	-33.012	-8.7506	-0.87555	-1.7178	-10.332	92.662
553.15160	-33.028	-8.7506	-0.87557	-1.7175	-10.327	92.007
553.65160	-32.675	-8.7506	-0.87556	-1.7022	-10.319	91.345
554.15160	-32.613	-8.7506	-0.87556	-1.6936	-10.313	90.756
554.65160	-32.523	-8.7507	-0.87557	-1.6934	-10.305	90.205
555.15160	-32.282	-8.7506	-0.87556	-1.6791	-10.297	89.61
555.65160	-32.257	-8.7506	-0.87556	-1.6773	-10.29	88.98
556.15160	-32.025	-8.7506	-0.87556	-1.6685	-10.284	88.444
556.65160	-31.959	-8.7505	-0.87555	-1.6613	-10.277	87.851
557.15160	-31.911	-8.7505	-0.87556	-1.6601	-10.271	87.283
557.65160	-31.595	-8.7505	-0.87555	-1.6437	-10.264	86.718
558.15160	-31.646	-8.7505	-0.87555	-1.6476	-10.256	86.172
558.65160	-31.407	-8.7505	-0.87556	-1.6363	-10.249	85.626
559.15160	-31.387	-8.7505	-0.87555	-1.6336	-10.243	85.008
559.65160	-31.318	-8.7505	-0.87555	-1.6314	-10.234	84.562
560.15160	-31.066	-8.7504	-0.87554	-1.616	-10.226	84.024
560.65160	-31.002	-8.7503	-0.87553	-1.6141	-10.22	83.522
561.15160	-30.769	-8.7503	-0.87552	-1.602	-10.212	83.003
561.65160	-30.573	-8.7504	-0.87553	-1.5918	-10.206	82.508
562.15160	-30.547	-8.7503	-0.87552	-1.5911	-10.199	82.035
562.65160	-30.257	-8.7503	-0.87551	-1.5756	-10.191	81.442
563.15160	-30.438	-8.7501	-0.87549	-1.582	-10.183	81.003
563.65160	-30.13	-8.75	-0.87548	-1.5692	-10.178	80.404
564.15160	-30.013	-8.75	-0.87547	-1.5603	-10.17	80.051
564.65160	-29.857	-8.75	-0.87548	-1.556	-10.161	79.454
565.15160	-29.718	-8.7498	-0.87545	-1.5454	-10.153	79.037
565.65160	-29.66	-8.7498	-0.87544	-1.5419	-10.147	78.605
566.15160	-29.318	-8.7496	-0.87542	-1.5272	-10.139	78.155
566.65160	-29.401	-8.7497	-0.87542	-1.5303	-10.132	77.82
567.15160	-29.244	-8.7496	-0.8754	-1.5225	-10.126	77.275
567.65160	-28.95	-8.7495	-0.87539	-1.5067	-10.117	76.832
568.15160	-29.073	-8.7494	-0.87536	-1.5124	-10.109	76.38
568.65160	-28.689	-8.7494	-0.87536	-1.4944	-10.104	75.944
569.15160	-28.778	-8.7493	-0.87536	-1.4979	-10.094	75.554
569.65160	-28.606	-8.7492	-0.87535	-1.4912	-10.088	75.187
570.15160	-28.327	-8.7491	-0.87533	-1.4746	-10.082	74.7
570.65160	-28.424	-8.7491	-0.87533	-1.48	-10.074	74.285
571.15160	-28.059	-8.749	-0.87532	-1.4611	-10.068	73.861
571.65160	-28.09	-8.749	-0.8753	-1.4598	-10.06	73.428
572.15160	-27.795	-8.7488	-0.87527	-1.4483	-10.053	73.068
572.65160	-27.577	-8.7487	-0.87525	-1.433	-10.046	72.685
573.15160	-27.658	-8.7487	-0.87525	-1.4408	-10.039	72.292
573.65160	-27.481	-8.7485	-0.87524	-1.429	-10.031	71.945
574.15160	-27.386	-8.7485	-0.87523	-1.4238	-10.023	71.527
574.65160	-27.224	-8.7484	-0.87521	-1.4202	-10.015	71.186
575.15160	-27.021	-8.7484	-0.87521	-1.4065	-10.009	70.811
575.65160	-27.031	-8.7483	-0.87519	-1.4082	-10.003	70.432
576.15160	-26.757	-8.7483	-0.87518	-1.3913	-9.9931	70.08
576.65160	-26.824	-8.7482	-0.87518	-1.393	-9.9876	69.588
577.15160	-26.452	-8.7481	-0.87515	-1.3788	-9.9817	69.33
577.65160	-26.46	-8.7481	-0.87517	-1.379	-9.9752	69.046
578.15160	-26.348	-8.748	-0.87515	-1.3718	-9.9682	68.687
578.65160	-26.01	-8.748	-0.87514	-1.355	-9.9619	68.317
579.15160	-26.177	-8.7479	-0.87512	-1.363	-9.9533	67.978
579.65160	-25.843	-8.7477	-0.87511	-1.3476	-9.9483	67.672
580.15160	-25.838	-8.7477	-0.87511	-1.3448	-9.941	67.349
580.65160	-25.615	-8.7477	-0.87509	-1.3358	-9.9331	66.988
581.15160	-25.548	-8.7477	-0.8751	-1.3309	-9.9268	66.704
581.65160	-25.555	-8.7476	-0.87508	-1.3325	-9.9185	66.357
582.15160	-25.15	-8.7474	-0.87505	-1.3108	-9.9111	66.027
582.65160	-25.17	-8.7474	-0.87505	-1.3067	-9.9028	65.725
583.15160	-25.14	-8.7474	-0.87506	-1.3128	-9.8954	65.453
583.65160	-24.852	-8.7472	-0.87503	-1.294	-9.8899	65.141
584.15160	-24.933	-8.7472	-0.87502	-1.2978	-9.8812	64.862
584.65160	-24.712	-8.7471	-0.87501	-1.2867	-9.8746	64.564
585.15160	-24.757	-8.7471	-0.87501	-1.2864	-9.8677	64.28
585.65160	-24.388	-8.7471	-0.87501	-1.2708	-9.8602	63.996
586.15160	-24.339	-8.747	-0.875	-1.2663	-9.8531	63.709
586.65160	-24.381	-8.747	-0.87499	-1.2701	-9.8451	63.458
587.15160	-23.969	-8.7468	-0.87497	-1.2487	-9.8378	63.085
587.65160	-24.047	-8.7467	-0.87495	-1.2507	-9.8309	62.775
588.15160	-23.889	-8.7467	-0.87495	-1.2481	-9.8243	62.507
588.65160	-23.791	-8.7466	-0.87493	-1.2375	-9.8164	62.292
589.15160	-23.714	-8.7466	-0.87493	-1.2368	-9.8087	61.964
589.65160	-23.503	-8.7465	-0.87491	-1.2264	-9.8009	61.821
590.15160	-23.571	-8.7464	-0.87489	-1.2252	-9.7937	61.434
590.65160	-23.26	-8.7462	-0.87487	-1.2129	-9.7877	61.098
591.15160	-23.201	-8.7462	-0.87487	-1.2072	-9.7804	61.061
591.65160	-22.967	-8.7463	-0.87488	-1.1981	-9.7729	60.681
592.15160	-22.773	-8.7462	-0.87487	-1.1829	-9.7654	60.408
592.65160	-22.855	-8.7461	-0.87484	-1.1893	-9.7585	60.135
593.15160	-22.511	-8.7461	-0.87485	-1.1738	-9.7523	59.886
593.65160	-22.566	-8.746	-0.87483	-1.1731	-9.7453	59.645
594.15160	-22.392	-8.7459	-0.87481	-1.1694	-9.7409	59.415
594.65160	-22.266	-8.7458	-0.8748	-1.1586	-9.7321	59.194
595.15160	-22.293	-8.7457	-0.87479	-1.1602	-9.7246	58.951
595.65160	-21.986	-8.7457	-0.87479	-1.1467	-9.7171	58.663
596.15160	-21.864	-8.7456	-0.87477	-1.1389	-9.7105	58.467
596.65160	-21.96	-8.7455	-0.87475	-1.1449	-9.7049	58.258
597.15160	-21.684	-8.7455	-0.87475	-1.1281	-9.6972	58.013
597.65160	-21.743	-8.7456	-0.87476	-1.1324	-9.6898	57.806
598.15160	-21.348	-8.7454	-0.87473	-1.1143	-9.6823	57.579
598.65160	-21.378	-8.7454	-0.87473	-1.1106	-9.675	57.359
599.15160	-21.229	-8.7453	-0.87471	-1.1093	-9.6686	57.167
599.65160	-21.07	-8.7453	-0.87472	-1.0962	-9.6622	56.884
600.15160	-21.198	-8.7452	-0.8747	-1.1043	-9.6544	56.73
600.65160	-20.823	-8.7452	-0.8747	-1.0868	-9.6467	56.557
601.15160	-20.87	-8.7452	-0.87469	-1.0862	-9.6387	56.349
601.65160	-20.768	-8.745	-0.87466	-1.085	-9.6312	56.098
602.15160	-20.523	-8.7449	-0.87465	-1.0673	-9.6241	55.899
