Time(sec)	Force(kgf)	LGauge(mm)	Strain	Stress(MPa)	Stroke(mm)	TC1(C)
0.00000	-127.28	0.00059544	5.3635e-05	-15.887	0.11796	34.998
1.00000	-127.65	0.00018827	1.2798e-05	-15.945	0.11559	34.952
2.00000	-127.88	3.1333e-05	2.3763e-06	-15.971	0.11561	34.922
3.00000	-128.07	-5.8583e-05	-3.7644e-06	-15.99	0.1136	34.893
4.00000	-127.96	-0.00011064	-7.3771e-06	-15.973	0.11234	34.875
5.00000	-127.88	-0.00022749	-1.5633e-05	-15.971	0.11249	34.828
6.00000	-128.02	-0.00035092	-2.5659e-05	-15.99	0.11399	34.792
7.00000	-128.27	-0.00045953	-3.382e-05	-16.018	0.11545	34.787
8.00000	-131.46	-0.00041259	-3.0167e-05	-16.415	0.11618	34.817
9.00000	-142.23	-0.00037771	-2.7733e-05	-17.753	0.11605	36.345
10.00000	-154.04	4.3529e-05	1.2726e-06	-19.237	0.11595	42.186
11.00000	-161.08	0.00081718	5.2987e-05	-20.116	0.11735	50.875
12.00000	-162.6	0.0010707	7.2167e-05	-20.304	0.11563	59.305
13.00000	-162.95	0.0010941	7.049e-05	-20.346	0.11822	65.093
14.00000	-164.81	0.0014563	9.7024e-05	-20.581	0.11734	68.629
15.00000	-167.24	0.0028281	0.00018973	-20.89	0.11682	71.65
15.48320	-169.19	0.0037246	0.00024898	-21.124	0.11772	73.571
16.48320	-171.01	0.0062386	0.00041846	-21.361	0.11823	78.781
17.48320	-172.02	0.0082541	0.00055261	-21.498	0.1186	85.385
18.48320	-173.12	0.0094339	0.00062938	-21.637	0.11922	91.705
19.48320	-173.67	0.010475	0.00069916	-21.703	0.1174	96.759
20.20700	-173.84	0.011548	0.00077252	-21.725	0.11854	99.75
21.20700	-174.38	0.013691	0.00091679	-21.795	0.12026	103.65
22.20700	-175.19	0.016227	0.0010835	-21.898	0.11999	108.23
23.20700	-175.89	0.018488	0.0012344	-21.978	0.12105	113.65
24.20700	-176.33	0.020365	0.001359	-22.043	0.12214	119.41
25.20700	-176.94	0.021839	0.0014573	-22.128	0.1218	124.62
26.20700	-177.4	0.023856	0.0015911	-22.191	0.1237	129.18
27.20700	-177.63	0.026385	0.0017569	-22.221	0.12344	133.73
28.20700	-177.84	0.028911	0.0019251	-22.25	0.12369	138.71
29.20700	-178.2	0.031291	0.0020832	-22.305	0.12309	143.96
30.20700	-178.81	0.033639	0.0022402	-22.385	0.12343	149.39
31.20700	-179.23	0.03556	0.0023648	-22.428	0.12387	154.6
32.20700	-179.44	0.037446	0.0024922	-22.456	0.12367	159.43
33.20700	-179.69	0.039742	0.0026454	-22.5	0.12296	163.96
34.20700	-180.01	0.042394	0.0028203	-22.541	0.12297	168.51
35.20700	-180.11	0.045425	0.0030216	-22.552	0.12134	173.48
36.20700	-179.97	0.048398	0.0032191	-22.541	0.12065	178.81
37.20700	-180.03	0.05074	0.0033763	-22.563	0.11932	184.25
38.20700	-180.3	0.053089	0.0035302	-22.605	0.1189	189.46
39.20700	-180.47	0.055643	0.0037021	-22.618	0.11891	194.27
40.20700	-180.6	0.058309	0.003881	-22.631	0.11713	199.03
41.20700	-180.44	0.061156	0.0040683	-22.624	0.11623	203.7
42.20700	-180.64	0.064432	0.0042875	-22.659	0.1162	208.51
43.20700	-180.94	0.067613	0.0045004	-22.699	0.116	213.75
44.20700	-180.84	0.070737	0.0047064	-22.68	0.11452	219.14
45.20700	-180.73	0.073557	0.0048937	-22.686	0.11499	224.43
46.20700	-181.01	0.076169	0.0050683	-22.718	0.11419	229.51
47.20700	-181.07	0.078996	0.0052556	-22.729	0.11348	234.18
48.20700	-181.04	0.082034	0.0054563	-22.729	0.11297	238.93
49.20700	-181.01	0.084898	0.0056465	-22.729	0.11306	243.85
50.20700	-181	0.088178	0.0058649	-22.74	0.11314	248.8
51.20700	-181.1	0.091391	0.0060763	-22.746	0.11286	253.77
52.20700	-181.11	0.094708	0.0062943	-22.754	0.11332	258.79
53.20700	-181.13	0.098275	0.0065287	-22.77	0.11216	263.88
54.20700	-181.25	0.10152	0.0067448	-22.788	0.11271	269.18
55.20700	-181.36	0.10457	0.0069473	-22.799	0.11259	274.34
56.20700	-181.39	0.10763	0.007149	-22.812	0.11144	279.37
56.50170	-181.41	0.10856	0.0072102	-22.812	0.11103	280.8
57.50170	-181.4	0.11159	0.0074119	-22.822	0.11156	285.67
58.50170	-181.59	0.11481	0.0076241	-22.851	0.11287	290.54
59.34130	-181.63	0.11754	0.0078056	-22.856	0.11273	294.79
60.34130	-181.68	0.12066	0.0080109	-22.866	0.11199	299.97
61.34130	-181.71	0.12328	0.008184	-22.878	0.11212	305.11
62.34130	-181.93	0.12614	0.0083715	-22.912	0.1124	310
63.34130	-181.99	0.12929	0.0085825	-22.916	0.11224	314.67
64.34130	-181.87	0.13279	0.0088148	-22.902	0.11121	319.42
65.34130	-181.86	0.13637	0.009049	-22.922	0.1117	324.42
66.34130	-181.96	0.13965	0.0092669	-22.934	0.11169	329.65
67.34130	-182.13	0.14275	0.0094735	-22.955	0.11203	334.85
68.34130	-182.13	0.14617	0.0096999	-22.96	0.11131	339.92
69.34130	-182.1	0.14946	0.0099184	-22.966	0.11137	344.98
70.34130	-182.28	0.1524	0.01011	-22.992	0.11249	350.04
71.34130	-182.35	0.15549	0.010315	-23.001	0.11191	355.02
72.34130	-182.38	0.15872	0.010529	-23.012	0.11227	359.92
73.34130	-182.36	0.162	0.010744	-23.016	0.1113	364.71
74.34130	-182.52	0.1654	0.010968	-23.045	0.11168	369.54
75.34130	-182.58	0.16892	0.011199	-23.052	0.11248	374.6
76.34130	-182.51	0.17243	0.011433	-23.05	0.11297	379.64
77.34130	-182.65	0.17564	0.011643	-23.082	0.11151	384.81
78.34130	-182.91	0.17883	0.011854	-23.109	0.11152	389.89
79.34130	-182.78	0.18221	0.012077	-23.095	0.11153	394.87
80.34130	-182.75	0.18521	0.012274	-23.095	0.11256	399.92
81.34130	-182.78	0.18842	0.012483	-23.113	0.11172	404.89
82.34130	-183.12	0.19158	0.012691	-23.16	0.11189	409.88
83.34130	-183.14	0.19476	0.012898	-23.162	0.11226	414.83
84.34130	-183.04	0.19815	0.013123	-23.16	0.11259	419.83
85.34130	-183.2	0.20127	0.013329	-23.187	0.11196	424.83
86.34130	-183.39	0.20451	0.013541	-23.215	0.11276	429.79
87.34130	-183.38	0.20784	0.01376	-23.209	0.11276	434.84
88.34130	-183.21	0.21147	0.013999	-23.199	0.1124	439.83
89.34130	-183.34	0.2148	0.014215	-23.228	0.11315	444.99
90.34130	-183.57	0.2176	0.014401	-23.257	0.11308	450.18
91.34130	-183.63	0.22028	0.014576	-23.262	0.11296	455.19
92.34130	-183.62	0.22316	0.014768	-23.269	0.11278	460.11
93.34130	-183.63	0.22623	0.014971	-23.282	0.11326	464.9
94.34130	-183.96	0.22942	0.015181	-23.319	0.11317	469.65
95.34130	-183.85	0.23302	0.015414	-23.309	0.11272	474.64
96.34130	-183.77	0.23636	0.015636	-23.307	0.1135	479.82
97.34130	-183.88	0.23922	0.015824	-23.326	0.11242	485.18
97.44620	-183.94	0.23952	0.015844	-23.336	0.11246	485.65
98.44620	-184.19	0.24213	0.016016	-23.371	0.11357	490.77
98.48170	-184.16	0.2422	0.01602	-23.368	0.11356	490.94
99.48170	-184.27	0.24478	0.016188	-23.381	0.11349	495.66
100.48170	-184.25	0.24783	0.016389	-23.391	0.1123	500.24
101.48170	-184.18	0.25108	0.016603	-23.386	0.1124	504.77
102.48170	-184.31	0.2547	0.016841	-23.398	0.11239	509.65
103.48170	-184.25	0.25839	0.01708	-23.399	0.11276	514.84
104.48170	-184.37	0.26184	0.017306	-23.427	0.11264	520.17
105.48170	-184.69	0.26477	0.017499	-23.474	0.11401	525.64
106.48170	-184.92	0.26755	0.017681	-23.5	0.11294	530.96
107.48170	-184.9	0.2702	0.017853	-23.498	0.11414	536.02
108.48170	-185	0.27261	0.01801	-23.518	0.11321	540.77
109.48170	-185.19	0.27536	0.01819	-23.556	0.11355	545.36
110.48170	-185.28	0.27876	0.018414	-23.564	0.11245	549.98
111.48170	-185.08	0.2823	0.018645	-23.541	0.11328	554.78
112.48170	-185.12	0.28553	0.018854	-23.559	0.11316	559.84
113.48170	-185.25	0.28878	0.019066	-23.583	0.11581	565.04
114.48170	-185.37	0.29217	0.019291	-23.593	0.11843	570.27
115.48170	-185.28	0.29528	0.019495	-23.588	0.11827	575.51
116.48170	-185.52	0.2984	0.019696	-23.63	0.11923	580.62
117.48170	-185.63	0.30159	0.019905	-23.645	0.1186	585.73
118.48170	-185.54	0.30467	0.020112	-23.633	0.11894	590.71
119.48170	-185.54	0.30771	0.020308	-23.638	0.11793	595.6
120.48170	-185.7	0.31075	0.020506	-23.673	0.11688	600.45
121.48170	-185.86	0.31394	0.020716	-23.691	0.11703	605.3
122.48170	-185.81	0.31711	0.020922	-23.691	0.11775	610.19
123.48170	-185.86	0.32021	0.021125	-23.702	0.1168	615.19
124.48170	-185.9	0.32342	0.021337	-23.719	0.11812	620.2
125.48170	-186.12	0.3267	0.021549	-23.738	0.12052	625.28
126.48170	-186.05	0.32993	0.021758	-23.736	0.12051	630.38
127.48170	-186.08	0.33299	0.021957	-23.747	0.11708	635.5
128.48170	-186.16	0.33597	0.022152	-23.764	0.11639	640.57
129.48170	-186.34	0.33896	0.022348	-23.787	0.1185	645.67
130.48170	-186.21	0.34181	0.022532	-23.779	0.12001	650.7
131.48170	-186.4	0.34463	0.022716	-23.811	0.12046	655.65
132.48170	-186.65	0.34739	0.022895	-23.845	0.11921	660.61
133.48170	-186.66	0.35033	0.023086	-23.845	0.12014	665.52
134.48170	-186.56	0.35302	0.023261	-23.844	0.12022	670.37
135.48170	-186.66	0.35605	0.023459	-23.866	0.11999	675.33
136.48170	-186.81	0.35915	0.02366	-23.886	0.12016	680.31
137.48170	-186.82	0.36205	0.023849	-23.888	0.1199	685.32
138.48170	-186.94	0.36487	0.024032	-23.907	0.11987	690.29
138.49960	-186.96	0.36492	0.024035	-23.91	0.11992	690.38
139.49960	-186.94	0.36783	0.024224	-23.922	0.12046	695.39
140.49960	-187.23	0.37067	0.024407	-23.959	0.12012	700.36
141.49960	-187.27	0.37354	0.024598	-23.96	0.12159	705.36
142.49960	-187.09	0.3764	0.024783	-23.947	0.12135	710.38
143.49960	-187.28	0.37881	0.024939	-23.981	0.12046	715.36
144.49960	-187.69	0.37986	0.025011	-24.03	0.1204	720.35
145.49960	-183.66	0.38006	0.025026	-23.513	0.11984	725.28
146.49960	-174.49	0.37944	0.024984	-22.339	0.12112	729.9
147.49960	-163.6	0.37825	0.024906	-20.947	0.12071	733.64
148.49960	-156.98	0.37695	0.024823	-20.093	0.12079	735.73
149.49960	-153.94	0.37619	0.024774	-19.696	0.12105	735.84
150.49960	-158.79	0.3769	0.024818	-20.322	0.12019	736.03
151.49960	-185.16	0.38287	0.025205	-23.71	0.12084	739.54
152.49960	-187.27	0.39782	0.026178	-24.001	0.12062	756.82
153.49960	-174.52	0.40037	0.026343	-22.368	0.12102	785.17
154.49960	-148.93	0.38768	0.025518	-19.075	0.12043	797.7
155.49960	-144.32	0.37606	0.024763	-18.473	0.12012	797.75
156.49960	-142.51	0.36624	0.024124	-18.232	0.11889	792.4
157.49960	-142.98	0.36065	0.02376	-18.279	0.11849	785.83
158.49960	-160.88	0.3632	0.023924	-20.571	0.11938	784.98
159.49960	-176.03	0.36735	0.024194	-22.525	0.11983	789.66
160.49960	-133.63	0.37693	0.024815	-17.11	0.12018	796.67
161.49960	-100.4	0.38515	0.025352	-12.856	0.1183	803.5
162.49960	-99.516	0.38881	0.025591	-12.746	0.11753	809.7
163.49960	-99.805	0.39208	0.025804	-12.794	0.11676	815.25
164.49960	-100.08	0.39527	0.026011	-12.832	0.11746	820.36
165.49960	-100.34	0.39861	0.026228	-12.863	0.11828	825.28
166.49960	-100.33	0.40202	0.026447	-12.867	0.1182	830.18
167.49960	-100.33	0.40555	0.026677	-12.871	0.11818	835.13
168.49960	-100.46	0.40911	0.026906	-12.887	0.11762	840.12
169.49960	-100.52	0.41286	0.027152	-12.89	0.11654	845.09
170.49960	-100.5	0.41688	0.027415	-12.894	0.11753	850.13
171.49960	-100.36	0.42073	0.027666	-12.885	0.11674	855.19
172.49960	-100.53	0.42474	0.027924	-12.91	0.11638	860.21
173.49960	-100.6	0.42865	0.028175	-12.915	0.11664	865.15
174.49960	-100.55	0.43273	0.028443	-12.917	0.11709	870.32
175.49960	-100.6	0.43677	0.028705	-12.927	0.11495	875.39
176.49960	-100.67	0.44079	0.028965	-12.939	0.11537	880.52
177.49960	-100.58	0.44495	0.029234	-12.927	0.11338	885.51
178.49960	-100.42	0.44924	0.029511	-12.913	0.11305	890.49
179.43930	-100.58	0.45298	0.029752	-12.939	0.11326	895.07
180.43930	-100.7	0.45701	0.030012	-12.959	0.11218	900.18
181.43930	-100.63	0.46081	0.030258	-12.947	0.11349	905.11
182.43930	-100.69	0.46457	0.030502	-12.964	0.11401	909.79
183.17370	-100.86	0.46751	0.030692	-12.99	0.11277	913.48
184.17370	-100.84	0.47192	0.030975	-12.982	0.11325	918.53
185.17370	-100.79	0.47596	0.031237	-12.985	0.11283	923.64
186.17370	-100.82	0.47995	0.031495	-12.996	0.11214	928.73
187.17370	-100.99	0.48428	0.031775	-13.019	0.11308	933.66
188.17370	-100.86	0.48809	0.03202	-13.001	0.11248	939.64
189.17370	-101.12	0.49046	0.032174	-13.042	0.11197	945.25
190.17370	-101.25	0.493	0.032336	-13.059	0.11261	949.71
191.17370	-101.26	0.49641	0.032558	-13.061	0.11249	954.04
192.17370	-101.27	0.50022	0.032804	-13.063	0.11305	958.45
193.17370	-101.22	0.50422	0.033061	-13.065	0.11275	963.15
194.17370	-101.16	0.50851	0.033337	-13.064	0.11233	968.42
195.17370	-101.29	0.51242	0.03359	-13.087	0.11255	973.51
196.17370	-101.42	0.51608	0.033826	-13.1	0.11199	978.77
197.17370	-101.32	0.51956	0.034052	-13.084	0.11243	983.76
198.17370	-101.36	0.523	0.034273	-13.1	0.11099	988.64
199.17370	-101.55	0.52662	0.034507	-13.128	0.11335	993.58
200.17370	-101.53	0.5304	0.034753	-13.123	0.11206	998.95
201.17370	-101.62	0.53337	0.034944	-13.138	0.1126	1004.1
202.17370	-101.75	0.53628	0.035129	-13.16	0.11264	1009.2
203.17370	-101.82	0.53939	0.035328	-13.175	0.11273	1013.8
204.17370	-101.88	0.54282	0.03555	-13.179	0.11176	1018.5
205.17370	-101.78	0.54621	0.035767	-13.167	0.11195	1023.6
206.17370	-101.83	0.54909	0.035951	-13.18	0.11239	1028.8
207.17370	-102.12	0.55132	0.036096	-13.225	0.11229	1033.9
208.17370	-102.31	0.55346	0.036233	-13.248	0.1117	1038.5
209.17370	-102.3	0.55612	0.036403	-13.241	0.11206	1043.2
210.17370	-102.19	0.55921	0.036601	-13.231	0.11281	1048.3
211.17370	-102.19	0.56158	0.036752	-13.243	0.11347	1053.6
212.17370	-102.62	0.56328	0.036862	-13.291	0.11248	1058.9
213.17370	-103.23	0.56419	0.036921	-13.369	0.11286	1064.4
214.17370	-103.67	0.56451	0.036941	-13.428	0.11232	1069.5
215.17370	-103.23	0.56464	0.036949	-13.377	0.11198	1074.2
216.17370	-102.37	0.56469	0.036954	-13.267	0.11238	1079.1
217.17370	-101.41	0.56469	0.036954	-13.14	0.11211	1083.8
218.17370	-100.29	0.56469	0.036957	-12.992	0.11191	1088.6
219.17370	-99.583	0.56476	0.036959	-12.905	0.11217	1093.8
220.17370	-98.667	0.56479	0.036959	-12.79	0.11227	1098.2
220.39120	-98.456	0.5648	0.036961	-12.76	0.11234	1099.3
221.39120	-96.986	0.56479	0.03696	-12.567	0.11184	1104.3
222.32000	-94.978	0.56484	0.036966	-12.306	0.11154	1109.5
223.32000	-92.305	0.56485	0.036965	-11.956	0.11168	1114.6
224.32000	-90.409	0.56491	0.036969	-11.722	0.11195	1119.7
225.32000	-88.915	0.56487	0.036966	-11.523	0.11137	1124.6
226.32000	-87.021	0.56474	0.03696	-11.272	0.11069	1129.9
227.32000	-85.475	0.56456	0.036948	-11.071	0.11153	1135.1
228.32000	-82.297	0.56411	0.036919	-10.667	0.11084	1141.9
229.32000	-79.153	0.5634	0.036875	-10.26	0.11074	1146.1
230.32000	-80.074	0.56341	0.036879	-10.369	0.11051	1149.5
231.32000	-81.102	0.56347	0.036878	-10.506	0.11131	1153.8
232.32000	-80.877	0.56358	0.036886	-10.479	0.11091	1159
233.32000	-78.106	0.56342	0.036875	-10.12	0.11163	1165.5
234.32000	-77.67	0.56327	0.036866	-10.061	0.11129	1169.7
235.32000	-77.235	0.56326	0.036863	-10.005	0.11165	1174.7
236.32000	-76.852	0.56332	0.036865	-9.9551	0.11147	1179.3
237.32000	-77.019	0.56351	0.036877	-9.9818	0.11121	1183.9
238.32000	-76.572	0.5637	0.036889	-9.923	0.11181	1189.1
239.32000	-75.767	0.56372	0.036889	-9.812	0.1094	1194.3
240.32000	-74.812	0.56364	0.036885	-9.6902	0.1111	1199.4
241.32000	-72.282	0.56201	0.03678	-9.3696	0.11086	1202.7
242.32000	-68.955	0.55987	0.036642	-8.9327	0.11039	1203.4
243.32000	-66.336	0.55853	0.036558	-8.5911	0.11116	1202.5
244.32000	-65.333	0.55749	0.03649	-8.4609	0.11155	1201.7
245.32000	-64.81	0.55664	0.036435	-8.3931	0.11047	1201
246.32000	-64.732	0.55582	0.036384	-8.3859	0.1107	1200.4
247.32000	-64.822	0.55407	0.03627	-8.3888	0.11011	1201
248.32000	-64.21	0.55291	0.036197	-8.3146	0.1107	1200.4
249.32000	-63.305	0.55279	0.036191	-8.1934	0.10939	1200.1
250.32000	-62.313	0.55258	0.036178	-8.0714	0.11053	1200.3
251.32000	-63.42	0.55154	0.036113	-8.2084	0.11068	1200.3
252.32000	-63.017	0.55136	0.036101	-8.1549	0.11095	1200.2
253.32000	-62.123	0.55126	0.036092	-8.0479	0.11071	1200.3
254.32000	-61.721	0.5512	0.03609	-7.9926	0.11059	1200.4
255.32000	-62.932	0.55048	0.036043	-8.1482	0.11107	1200.5
256.32000	-63.003	0.54965	0.035988	-8.15	0.11128	1200.5
257.32000	-62.014	0.54942	0.035973	-8.0289	0.10931	1200.5
258.32000	-62.633	0.54885	0.035937	-8.1088	0.10732	1200.4
259.32000	-62.67	0.54843	0.035909	-8.1121	0.10698	1200.4
260.32000	-62.069	0.54831	0.035902	-8.0274	0.10716	1200.6
261.32000	-61.982	0.5477	0.035864	-8.023	0.10832	1200.5
261.42420	-62.247	0.54758	0.035855	-8.0554	0.10827	1200.5
262.42420	-61.698	0.54719	0.035832	-7.9864	0.10874	1200.6
263.42420	-62.527	0.54682	0.035806	-8.0919	0.10918	1200.4
264.42420	-61.949	0.54674	0.0358	-8.015	0.10995	1200.2
265.42420	-61.1	0.54659	0.03579	-7.9095	0.11041	1200.3
266.42420	-60.759	0.54647	0.035781	-7.8702	0.10989	1200.2
267.42420	-62.377	0.54595	0.035749	-8.0715	0.1092	1200.1
268.42420	-61.84	0.54597	0.035751	-8.004	0.10864	1200.2
269.42420	-61.298	0.546	0.035752	-7.9314	0.10852	1200.1
270.42420	-61.121	0.54587	0.035743	-7.9138	0.10914	1200.1
271.42420	-61.267	0.54577	0.035737	-7.9268	0.1088	1200.1
272.42420	-60.615	0.54593	0.035751	-7.8354	0.10824	1200.2
273.42420	-59.851	0.54604	0.035758	-7.7478	0.10829	1200.2
274.42420	-61.943	0.54555	0.035723	-8.0203	0.10926	1200.1
275.42420	-61.954	0.54528	0.035707	-8.0149	0.11003	1200
276.42420	-61.7	0.54524	0.035708	-7.98	0.11069	1200
277.42420	-61.516	0.54547	0.035724	-7.9635	0.11107	1200.1
278.42420	-61.212	0.54554	0.035726	-7.9288	0.11081	1200
279.42420	-60.839	0.54545	0.035718	-7.8677	0.11177	1199.9
280.42420	-60.624	0.54539	0.035715	-7.8442	0.11177	1199.9
281.42420	-59.893	0.54529	0.035712	-7.7535	0.11212	1199.9
282.42420	-61.5	0.54497	0.035691	-7.9572	0.1123	1199.6
283.42420	-62.474	0.54495	0.035688	-8.083	0.11236	1199.9
284.42420	-61.912	0.54487	0.035681	-8.0071	0.11235	1200.1
285.42420	-61.55	0.54488	0.035682	-7.9671	0.10969	1200.2
286.42420	-61.226	0.5447	0.035669	-7.9226	0.11027	1200.2
287.42420	-60.648	0.54448	0.035657	-7.842	0.10999	1200.2
288.42420	-60.275	0.54426	0.035644	-7.7971	0.1088	1200.1
289.42420	-60.222	0.5443	0.035644	-7.8008	0.10971	1200.1
290.42420	-60.394	0.54425	0.03564	-7.8163	0.11028	1200.1
291.42420	-60.276	0.54399	0.035621	-7.796	0.11095	1200.1
292.42420	-59.8	0.54367	0.035601	-7.7394	0.11063	1200.1
293.42420	-60.201	0.54357	0.035597	-7.7902	0.11131	1200.1
294.42420	-59.59	0.54364	0.035602	-7.7123	0.11182	1200
295.42420	-60.724	0.54391	0.035619	-7.853	0.11186	1199.9
296.42420	-61.097	0.54386	0.035612	-7.9088	0.11195	1200
297.42420	-61.415	0.54365	0.0356	-7.9541	0.11065	1200.1
298.42420	-61.36	0.54361	0.0356	-7.9371	0.11164	1200.1
299.42420	-61.3	0.54383	0.035616	-7.9278	0.11073	1200.3
300.42420	-61.311	0.54373	0.035605	-7.9357	0.11151	1200.3
301.42420	-61.098	0.54358	0.035598	-7.9056	0.11166	1200.4
302.35780	-60.26	0.54371	0.035611	-7.7856	0.11071	1200.3
303.35780	-60.09	0.54372	0.035609	-7.7745	0.1122	1200.1
304.35780	-60.127	0.54356	0.035598	-7.7837	0.11163	1200.2
305.35780	-59.38	0.54373	0.035609	-7.6803	0.11279	1200.1
306.35780	-59.23	0.54369	0.035606	-7.6592	0.11308	1200
307.09060	-61.305	0.54304	0.035566	-7.9363	0.1144	1200
308.09060	-61.965	0.54263	0.03554	-8.0113	0.11326	1200.1
309.09060	-61.416	0.54276	0.035546	-7.9451	0.11257	1200
310.09060	-61.32	0.54261	0.035535	-7.936	0.11154	1200.1
311.09060	-60.83	0.54249	0.03553	-7.8641	0.11112	1200
312.09060	-60.056	0.54271	0.035542	-7.7669	0.11132	1199.8
313.09060	-61.223	0.54244	0.035522	-7.9235	0.11139	1199.8
314.09060	-62.685	0.542	0.035494	-8.1135	0.11252	1199.9
315.09060	-62.439	0.54205	0.0355	-8.0786	0.11171	1200
316.09060	-61.837	0.54219	0.035506	-7.9985	0.11137	1200
317.09060	-61.84	0.54215	0.035501	-8.0015	0.11319	1200
318.09060	-62.24	0.54201	0.035496	-8.0542	0.11323	1200.1
319.09060	-61.792	0.54216	0.035507	-7.9943	0.1124	1200.1
320.09060	-61.297	0.54222	0.035507	-7.9307	0.11274	1200.2
321.09060	-60.927	0.54196	0.035491	-7.8892	0.112	1200.1
322.09060	-60.633	0.54198	0.035495	-7.8488	0.11072	1200
323.09060	-60.104	0.54213	0.035504	-7.7745	0.11057	1200.1
324.09060	-60.917	0.54167	0.035472	-7.8842	0.11031	1200.1
325.09060	-61.641	0.54132	0.035453	-7.9809	0.10896	1200
326.09060	-61.338	0.54146	0.035461	-7.9352	0.1105	1200.1
327.09060	-60.687	0.54138	0.035456	-7.8486	0.11052	1200.1
328.09060	-60.496	0.54121	0.035449	-7.8278	0.11157	1200.1
329.09060	-60.305	0.54125	0.035452	-7.8032	0.11141	1200.1
330.09060	-60.099	0.5414	0.035459	-7.7707	0.1123	1200
331.09060	-59.99	0.54128	0.03545	-7.761	0.112	1200
332.09060	-60.042	0.54121	0.035448	-7.7681	0.11142	1200
333.09060	-60.034	0.54143	0.035463	-7.7679	0.10952	1199.9
334.09060	-59.667	0.54127	0.03545	-7.7191	0.11086	1199.7
335.09060	-60.358	0.54122	0.035446	-7.8103	0.11112	1199.7
336.09060	-61.071	0.54136	0.035458	-7.9078	0.11059	1199.9
337.09060	-61.236	0.54147	0.035463	-7.9234	0.11244	1200
338.09060	-61.325	0.54129	0.03545	-7.9315	0.11107	1200.1
339.09060	-61.172	0.5414	0.035458	-7.9177	0.11302	1200.1
340.09060	-61.356	0.54151	0.035463	-7.9436	0.11194	1200.1
341.09060	-61.61	0.5413	0.035449	-7.9735	0.11144	1200.1
342.09060	-61.974	0.5414	0.035457	-8.0176	0.11214	1200
343.09060	-62.125	0.54159	0.035468	-8.0408	0.11147	1200.1
343.39620	-62.317	0.5416	0.035468	-8.0581	0.1121	1200.1
344.39620	-61.957	0.54133	0.035451	-8.0177	0.11328	1200.1
345.39620	-61.746	0.54137	0.035455	-7.9881	0.11228	1200
346.22540	-61.567	0.54159	0.035469	-7.9669	0.11195	1200
347.22540	-61.547	0.54153	0.035463	-7.9702	0.11288	1199.9
348.22540	-61.582	0.54137	0.035454	-7.9676	0.11285	1199.9
349.22540	-61.924	0.54149	0.035466	-8.0067	0.1125	1199.8
350.22540	-62.08	0.54161	0.035473	-8.0285	0.11289	1200
351.22540	-62.165	0.54143	0.035458	-8.0445	0.11202	1200.1
352.22540	-62.4	0.54131	0.035451	-8.0697	0.11142	1200.1
353.22540	-62.246	0.54155	0.035471	-8.0509	0.11133	1200.1
354.22540	-62.168	0.54154	0.035469	-8.0411	0.11186	1200.2
355.22540	-61.853	0.54132	0.035454	-8.0057	0.11133	1200.1
356.22540	-61.82	0.54137	0.035459	-7.9952	0.1118	1200.1
357.22540	-61.723	0.54156	0.035469	-7.982	0.11064	1200.1
358.22540	-62.294	0.54133	0.035456	-8.0639	0.11029	1200.1
359.22540	-63.384	0.54084	0.035425	-8.1985	0.11129	1200.1
360.22540	-63.282	0.54099	0.035434	-8.188	0.11158	1200.1
361.22540	-62.758	0.54131	0.035452	-8.1158	0.11104	1200.1
362.22540	-61.872	0.5413	0.035451	-8.0098	0.11033	1200.1
363.22540	-61.23	0.54143	0.035462	-7.9206	0.11019	1199.9
364.22540	-62.198	0.54156	0.035469	-8.039	0.11075	1199.9
365.22540	-62.804	0.54109	0.035437	-8.1267	0.10978	1200
366.22540	-61.954	0.54095	0.035426	-8.0182	0.11025	1199.8
367.22540	-63.92	0.54044	0.035395	-8.2684	0.11	1199.8
368.22540	-63.209	0.54048	0.035398	-8.1742	0.11009	1200
369.22540	-62.011	0.54051	0.035398	-8.0249	0.10961	1200
370.22540	-62.428	0.54014	0.035373	-8.0823	0.11089	1199.9
371.22540	-63.176	0.53923	0.035315	-8.1711	0.10989	1200
372.22540	-62.82	0.53922	0.035316	-8.1257	0.10938	1199.9
373.22540	-62.251	0.53928	0.03532	-8.0549	0.10984	1200
374.22540	-61.597	0.5392	0.035317	-7.9724	0.10806	1199.8
375.22540	-62.161	0.53923	0.035316	-8.0379	0.10904	1199.9
376.22540	-61.522	0.53901	0.035303	-7.9555	0.10932	1200
377.22540	-62.069	0.53867	0.03528	-8.0349	0.1096	1199.9
378.22540	-63.81	0.53777	0.035224	-8.2528	0.10851	1200
379.22540	-63.94	0.53771	0.035225	-8.2646	0.11005	1200.2
380.22540	-62.634	0.53766	0.035222	-8.0972	0.10858	1200.1
381.22540	-62.284	0.53757	0.035212	-8.0629	0.10799	1200
382.22540	-62.235	0.53745	0.035204	-8.0515	0.10916	1200
383.22540	-62.365	0.53735	0.035198	-8.0647	0.10866	1200
384.22540	-62.1	0.53724	0.035193	-8.0326	0.1076	1200.1
384.33420	-62.124	0.53724	0.035193	-8.0317	0.1079	1200.1
385.33420	-61.975	0.53726	0.035195	-8.0157	0.10675	1200
385.37040	-61.917	0.53723	0.035193	-8.0092	0.10685	1200.1
386.37040	-61.599	0.5373	0.035196	-7.9714	0.10712	1200
387.37040	-61.718	0.53742	0.035202	-7.9769	0.10832	1199.9
388.37040	-61.787	0.53735	0.035197	-7.9875	0.10682	1200.1
389.37040	-61.437	0.53719	0.035186	-7.9504	0.10812	1200.1
390.37040	-61.514	0.53711	0.035182	-7.9526	0.10819	1200
391.37040	-61.325	0.53718	0.035188	-7.9215	0.10796	1200.1
392.37040	-63.196	0.53662	0.035151	-8.1741	0.10905	1200.1
393.37040	-63.84	0.53613	0.035115	-8.2593	0.10748	1200.1
394.37040	-64.16	0.53606	0.035111	-8.3009	0.10701	1200.2
395.37040	-63.596	0.53594	0.035104	-8.224	0.10791	1200.2
396.37040	-63.222	0.53585	0.035098	-8.1759	0.10708	1200.1
397.37040	-63.333	0.53582	0.035099	-8.1937	0.10765	1200
398.37040	-62.508	0.53587	0.035103	-8.0836	0.10682	1199.8
399.37040	-62.209	0.53588	0.035103	-8.042	0.10684	1199.8
400.37040	-62.45	0.536	0.035111	-8.0799	0.10624	1199.8
401.37040	-62.872	0.53612	0.035121	-8.1345	0.10759	1199.8
402.37040	-62.291	0.53614	0.035117	-8.0575	0.10714	1199.7
403.37040	-61.69	0.53605	0.035111	-7.9772	0.10725	1199.6
404.37040	-62.377	0.53608	0.035115	-8.0713	0.10664	1199.8
405.37040	-62.3	0.53606	0.035115	-8.0606	0.10614	1200
406.37040	-61.815	0.53601	0.035111	-7.9958	0.10689	1200
407.37040	-61.44	0.53589	0.035103	-7.9414	0.10738	1199.9
408.37040	-62.137	0.53586	0.035103	-8.0376	0.1064	1200
409.37040	-62.971	0.53569	0.035095	-8.1446	0.10626	1200.1
410.37040	-62.956	0.53571	0.035096	-8.1381	0.10663	1200.1
411.37040	-62.837	0.53585	0.035102	-8.1207	0.1056	1200.1
412.37040	-62.54	0.53585	0.035102	-8.0884	0.10688	1200
413.37040	-62.759	0.53583	0.0351	-8.1212	0.1052	1200
414.37040	-62.806	0.53583	0.035099	-8.1201	0.10609	1200.1
415.37040	-62.555	0.53585	0.035101	-8.0855	0.10622	1200
416.37040	-62.538	0.53583	0.035097	-8.0869	0.10519	1200
417.37040	-62.49	0.53579	0.035096	-8.0829	0.10661	1200
418.37040	-62.46	0.53585	0.035098	-8.0793	0.10634	1199.9
419.37040	-62.503	0.53591	0.035101	-8.0782	0.10516	1200.1
420.37040	-61.61	0.5358	0.035093	-7.9673	0.10561	1200
421.37040	-63.674	0.53024	0.034735	-8.2367	0.10552	1197.9
422.37040	-63.621	0.52352	0.034302	-8.2244	0.10574	1193.3
423.37040	-63.324	0.51822	0.033963	-8.1752	0.10589	1187.6
424.37040	-62.934	0.51388	0.033683	-8.131	0.10537	1182
425.30580	-62.928	0.51007	0.033438	-8.1319	0.10531	1176.9
426.30580	-62.884	0.50565	0.033154	-8.1183	0.10584	1171.5
426.33210	-62.868	0.50556	0.033148	-8.1183	0.10577	1171.4
427.33210	-62.693	0.5011	0.032864	-8.0835	0.10522	1166.1
428.33210	-62.621	0.49682	0.032586	-8.0765	0.10476	1160.8
429.33210	-62.66	0.49248	0.032305	-8.0881	0.10431	1155.7
430.33210	-62.749	0.48828	0.032036	-8.0892	0.10502	1150.5
431.33210	-62.811	0.48422	0.031774	-8.0912	0.10492	1145.5
432.33210	-62.599	0.47974	0.031482	-8.0688	0.10485	1140.4
433.33210	-62.775	0.47519	0.031188	-8.0926	0.10629	1135.2
434.33210	-62.859	0.47105	0.030923	-8.0888	0.10499	1130.2
435.33210	-62.696	0.46701	0.030664	-8.0705	0.10514	1125.1
436.33210	-62.678	0.46286	0.030392	-8.07	0.10492	1120
437.33210	-62.858	0.45851	0.030109	-8.0928	0.10547	1115
438.33210	-62.823	0.45426	0.029836	-8.0855	0.10566	1110
439.33210	-62.755	0.4508	0.029614	-8.0707	0.10556	1105
440.33210	-62.778	0.44685	0.029354	-8.0738	0.10413	1100.1
441.33210	-63.067	0.44254	0.029075	-8.1057	0.10581	1095.1
442.33210	-62.878	0.43862	0.028825	-8.076	0.10587	1090
443.33210	-62.889	0.4349	0.028583	-8.0833	0.10473	1085.2
444.33210	-62.987	0.43106	0.028329	-8.0937	0.10479	1080.2
445.33210	-63.212	0.42676	0.028052	-8.1146	0.10466	1075.3
446.33210	-63.064	0.42288	0.027802	-8.0965	0.10569	1070.2
447.33210	-63.065	0.41919	0.027561	-8.0977	0.10588	1065.3
448.33210	-63.276	0.41504	0.027292	-8.1243	0.10544	1060.2
449.33210	-63.123	0.41104	0.027034	-8.0967	0.10666	1055.3
450.33210	-63.186	0.40708	0.026776	-8.1008	0.10751	1050.3
451.33210	-63.266	0.40273	0.026495	-8.1155	0.10545	1045.3
452.33210	-63.384	0.39829	0.026207	-8.1231	0.10635	1040.4
453.33210	-63.486	0.39418	0.02594	-8.1337	0.10662	1035.3
454.33210	-63.337	0.3899	0.025659	-8.116	0.10597	1030.3
455.33210	-63.607	0.38541	0.025372	-8.15	0.10651	1025.3
456.33210	-63.772	0.38091	0.025081	-8.1583	0.1072	1020.3
457.33210	-63.765	0.37618	0.024773	-8.1586	0.10717	1015.2
458.33210	-63.723	0.37152	0.024468	-8.1545	0.10648	1010.2
459.33210	-63.888	0.36736	0.024199	-8.1778	0.10694	1005.2
460.33210	-63.978	0.36289	0.023906	-8.1769	0.10731	1000.3
461.33210	-63.995	0.35834	0.023612	-8.1779	0.10721	995.23
462.33210	-64.019	0.35413	0.023338	-8.1846	0.10693	990.21
463.33210	-64.123	0.35013	0.023075	-8.197	0.10783	985.26
464.33210	-64.364	0.34578	0.022791	-8.2169	0.10839	980.17
465.33210	-64.098	0.34172	0.022528	-8.1816	0.10765	975.21
466.33210	-64.197	0.33762	0.022259	-8.2001	0.10815	970.38
466.36390	-64.174	0.33748	0.02225	-8.1975	0.1082	970.22
467.36390	-64.343	0.33305	0.021959	-8.2125	0.10797	965.21
468.36390	-64.248	0.32879	0.021683	-8.1938	0.10783	960.18
469.36390	-64.438	0.32478	0.021421	-8.2211	0.10777	955.18
470.36390	-64.462	0.32047	0.021138	-8.2248	0.1084	950.1
471.36390	-64.652	0.31635	0.020869	-8.242	0.10785	945.1
472.36390	-64.528	0.31241	0.020615	-8.2268	0.10832	940.19
473.36390	-64.769	0.30756	0.020296	-8.2569	0.10752	935.43
474.36390	-64.948	0.30275	0.019981	-8.2739	0.10879	930.16
475.36390	-64.995	0.2983	0.019692	-8.2715	0.10853	925
476.36390	-64.9	0.29402	0.01941	-8.2624	0.10794	920.02
477.36390	-65.124	0.28935	0.019106	-8.2897	0.10783	914.98
478.36390	-65.179	0.28504	0.018826	-8.294	0.10871	909.96
479.36390	-65.116	0.28052	0.01853	-8.2819	0.10852	905.05
480.36390	-65.274	0.084214	0.0055616	-8.1996	0.073471	900.09
481.10000	-65.425	0.052619	0.0034754	-8.1991	0.083781	899.18
486.10000	-77.48	0.002908	0.00019522	-9.6753	0.067657	898.92
491.10000	-78.569	0.00071498	4.9905e-05	-9.8108	0.011456	899.82
496.10000	-77.836	0.00031714	2.0041e-05	-9.7187	-0.04876	899.87
501.10000	-76.509	-5.5268e-05	-4.333e-06	-9.5531	-0.10839	899.96
506.10000	-73.829	-0.00033556	-2.4333e-05	-9.2181	-0.16879	899.91
511.10000	-70.288	-0.00062476	-4.1834e-05	-8.7777	-0.22955	899.91
516.10000	-66.768	-0.001089	-7.2637e-05	-8.3379	-0.28981	900.06
521.10000	-62.979	-0.0018692	-0.00012259	-7.8625	-0.34985	900.12
526.10000	-63.128	-0.0039613	-0.0002668	-7.8806	-0.40929	899.98
531.10000	-62.609	-0.0054919	-0.00036533	-7.8157	-0.46904	900.01
536.10000	-63.579	-0.0074455	-0.0004969	-7.9353	-0.52979	899.91
541.10000	-62.107	-0.007497	-0.00049984	-7.7518	-0.59009	900
546.10000	-62.326	-0.0077704	-0.00051934	-7.7792	-0.65107	900.05
551.10000	-62.519	-0.0081813	-0.00054587	-7.8041	-0.71188	899.96
556.10000	-63.117	-0.0097107	-0.00064923	-7.8781	-0.77136	899.87
561.10000	-63.403	-0.010913	-0.00072807	-7.9126	-0.83236	899.84
566.10000	-62.93	-0.011491	-0.00076559	-7.851	-0.89263	899.99
571.10000	-62.711	-0.012363	-0.00082296	-7.8234	-0.95272	899.99
576.10000	-62.217	-0.012639	-0.00084456	-7.7628	-1.0134	899.98
581.10000	-63.258	-0.013559	-0.00090488	-7.8918	-1.0733	900.12
586.10000	-63.897	-0.013438	-0.00089564	-7.9739	-1.1337	900.04
591.10000	-64.035	-0.013122	-0.000873	-7.9902	-1.1939	900
596.10000	-64.259	-0.012422	-0.00082766	-8.0176	-1.2546	899.98
601.10000	-109.11	-0.0047851	-0.00032069	-13.621	-1.3129	900.32
606.10000	-194.03	-0.023557	-0.0015732	-24.187	-1.3723	900.36
611.10000	-237.07	-0.068021	-0.004543	-29.466	-1.432	899.94
616.10000	-260.81	-0.11787	-0.0078889	-32.309	-1.4917	899.9
621.10000	-278.56	-0.16909	-0.011335	-34.388	-1.5515	899.86
626.10000	-293.26	-0.22017	-0.014788	-36.081	-1.6107	899.9
631.10000	-304.23	-0.27204	-0.018305	-37.301	-1.6706	899.87
636.10000	-317.48	-0.32494	-0.0219	-38.783	-1.7301	899.98
641.10000	-330.02	-0.37737	-0.025476	-40.17	-1.7896	899.98
646.10000	-339.71	-0.42941	-0.029046	-41.203	-1.8486	899.97
651.10000	-352.24	-0.48145	-0.032626	-42.571	-1.9074	900.03
656.10000	-362.78	-0.53305	-0.036187	-43.689	-1.9678	900.12
661.10000	-375.58	-0.58489	-0.039774	-45.067	-2.0271	900.05
666.10000	-385.26	-0.63765	-0.04344	-46.059	-2.0872	900.01
671.10000	-396.93	-0.6902	-0.047105	-47.281	-2.1464	899.98
676.10000	-403.78	-0.74188	-0.050726	-47.924	-2.2067	900.02
681.10000	-417.1	-0.79386	-0.05438	-49.325	-2.2671	899.98
686.10000	-424.93	-0.84635	-0.058079	-50.064	-2.3269	900.01
691.10000	-436.7	-0.89904	-0.061807	-51.259	-2.3869	900.01
696.10000	-445.27	-0.95165	-0.065542	-52.07	-2.4469	900
701.10000	-453.79	-1.0028	-0.069192	-52.874	-2.5071	900.01
706.10000	-466.24	-1.0552	-0.072948	-54.122	-2.5674	900
711.10000	-474.77	-1.1071	-0.076676	-54.907	-2.6276	899.98
716.10000	-481.37	-1.1593	-0.080434	-55.459	-2.6877	900
721.10000	-487.34	-1.2108	-0.084166	-55.939	-2.7484	900
726.10000	-495.04	-1.2623	-0.087912	-56.61	-2.8082	899.93
731.10000	-498.53	-1.3144	-0.091713	-56.794	-2.8679	900.03
736.10000	-505.14	-1.3672	-0.095573	-57.326	-2.9282	900.06
741.10000	-508.34	-1.4204	-0.099482	-57.463	-2.989	899.99
746.10000	-508.57	-1.472	-0.10329	-57.269	-3.0491	900.02
751.10000	-508.54	-1.5247	-0.10719	-57.045	-3.1091	900.02
756.10000	-509.48	-1.5787	-0.11121	-56.92	-3.1684	899.97
761.10000	-508.57	-1.633	-0.11526	-56.589	-3.2293	899.9
766.10000	-503.21	-1.685	-0.11916	-55.775	-3.2895	900.06
771.10000	-501.15	-1.7374	-0.1231	-55.327	-3.349	900.02
776.10000	-501.97	-1.7903	-0.1271	-55.196	-3.4088	900.01
781.10000	-501.04	-1.8437	-0.13115	-54.873	-3.4694	899.99
786.10000	-496.67	-1.8972	-0.13523	-54.172	-3.5292	900.01
791.10000	-494.98	-1.9491	-0.13919	-53.774	-3.5894	899.97
796.10000	-495.68	-2.0021	-0.14326	-53.631	-3.6489	900.07
801.10000	-494.84	-2.0556	-0.14739	-53.32	-3.709	900.02
806.10000	-494.86	-2.1111	-0.15169	-53.094	-3.7681	899.98
811.10000	-491.96	-2.1642	-0.15582	-52.567	-3.8277	899.95
816.10000	-494.27	-2.2178	-0.15999	-52.592	-3.8874	899.87
821.10000	-495.65	-2.2715	-0.1642	-52.514	-3.9471	900.04
826.10000	-495.98	-2.3246	-0.16839	-52.333	-4.0065	900.05
831.10000	-497.93	-2.3778	-0.1726	-52.318	-4.0652	900
836.10000	-498.89	-2.4301	-0.17675	-52.202	-4.1254	899.97
841.10000	-502.51	-2.4836	-0.18101	-52.357	-4.1857	899.91
846.10000	-504.3	-2.5373	-0.18531	-52.317	-4.245	900.08
851.10000	-506.36	-2.5907	-0.18961	-52.304	-4.3044	899.98
856.10000	-508.6	-2.6441	-0.19392	-52.311	-4.3647	899.95
861.10000	-510.28	-2.6966	-0.19818	-52.261	-4.4243	899.96
866.10000	-516.62	-2.7514	-0.20264	-52.676	-4.4852	900.04
871.10000	-520.4	-2.8057	-0.20708	-52.824	-4.5456	900.04
876.10000	-523.03	-2.8598	-0.21153	-52.858	-4.6057	899.97
881.10000	-523.59	-2.9115	-0.2158	-52.688	-4.6662	900.02
886.10000	-528.03	-2.9637	-0.22012	-52.905	-4.7263	900.11
891.10000	-532.98	-3.0171	-0.22457	-53.162	-4.7865	900.07
896.10000	-535.27	-3.0704	-0.22902	-53.154	-4.8468	900.02
901.10000	-535.11	-3.1229	-0.23344	-52.904	-4.9068	899.89
906.10000	-541.15	-3.1776	-0.23805	-53.256	-4.9675	899.98
911.10000	-541.62	-3.231	-0.24258	-53.061	-5.0271	900.06
916.10000	-543.53	-3.2844	-0.24713	-53.008	-5.087	900
921.10000	-546	-3.3379	-0.25171	-53.005	-5.1472	899.99
926.10000	-546.84	-3.3894	-0.25613	-52.851	-5.2068	899.99
931.10000	-567.45	-3.4529	-0.26161	-54.538	-5.2793	900
936.10000	-576.03	-3.5385	-0.26906	-54.959	-5.3755	900.02
941.10000	-572.73	-3.593	-0.27383	-54.384	-5.4371	899.93
946.10000	-574.11	-3.6457	-0.27845	-54.261	-5.497	899.93
951.10000	-575.69	-3.6993	-0.28318	-54.153	-5.5575	899.99
956.10000	-573.63	-3.7531	-0.28795	-53.706	-5.6172	900.15
961.10000	-574.5	-3.8063	-0.2927	-53.533	-5.6769	899.97
966.10000	-574.08	-3.8573	-0.29727	-53.249	-5.7361	900.04
971.10000	-575.2	-3.91	-0.30201	-53.1	-5.7949	899.91
976.10000	-577.42	-3.9628	-0.30678	-53.052	-5.8541	900.06
981.10000	-576.77	-4.0158	-0.31159	-52.737	-5.9134	900.07
986.10000	-576.9	-4.0675	-0.31631	-52.502	-5.9724	900.07
991.10000	-584.32	-4.1201	-0.32114	-52.92	-6.0318	899.97
996.10000	-589.07	-4.1748	-0.32618	-53.082	-6.0915	900.03
1001.10000	-594.29	-4.2293	-0.33122	-53.283	-6.1501	899.99
1006.10000	-598.39	-4.2838	-0.3363	-53.378	-6.2092	900.1
1011.10000	-600.64	-4.3363	-0.3412	-53.318	-6.2697	899.97
1016.10000	-605.43	-4.3897	-0.34623	-53.475	-6.3293	899.86
1021.10000	-612.08	-4.4432	-0.35128	-53.788	-6.3887	899.98
1026.10000	-615.77	-4.4969	-0.35638	-53.836	-6.4485	900.09
1031.10000	-618.46	-4.5502	-0.36147	-53.796	-6.5082	900.06
1036.10000	-624.07	-4.6029	-0.36652	-54.011	-6.5679	900.03
1041.10000	-628.45	-4.6569	-0.37173	-54.108	-6.628	900.01
1046.10000	-634.34	-4.7116	-0.37703	-54.326	-6.6888	899.98
1051.10000	-638.27	-4.7656	-0.38229	-54.376	-6.7487	900.05
1056.10000	-642.78	-4.819	-0.38753	-54.474	-6.8095	900
1061.10000	-644.75	-4.8712	-0.39267	-54.362	-6.8695	900
1066.10000	-650.72	-4.925	-0.39799	-54.575	-6.9302	900.03
1071.10000	-655.97	-4.9788	-0.40335	-54.721	-6.9907	899.93
1076.10000	-656.87	-5.0321	-0.40867	-54.504	-7.0509	900.03
1081.10000	-662.71	-5.0856	-0.41406	-54.692	-7.1113	899.97
1086.10000	-669.19	-5.14	-0.41956	-54.925	-7.1717	900.04
1091.10000	-673.41	-5.1947	-0.42514	-54.964	-7.232	899.97
1096.10000	-680.04	-5.2492	-0.43071	-55.198	-7.2923	899.94
1101.10000	-686.2	-5.3028	-0.43621	-55.39	-7.3531	900.02
1106.10000	-692.9	-5.3579	-0.44191	-55.613	-7.4136	900.18
1111.10000	-699.84	-5.4122	-0.44756	-55.854	-7.4736	899.99
1116.10000	-704.11	-5.4671	-0.45331	-55.874	-7.5343	899.94
1121.10000	-708.04	-5.5207	-0.45894	-55.87	-7.5946	900.04
1126.10000	-714.22	-5.5738	-0.46456	-56.041	-7.6544	900.08
1131.10000	-721.61	-5.6284	-0.47036	-56.292	-7.7147	900.01
1136.10000	-727.41	-5.6827	-0.47617	-56.418	-7.7747	900.01
1141.10000	-732.29	-5.7363	-0.48195	-56.47	-7.8341	900.04
1146.10000	-737.72	-5.7885	-0.48761	-56.568	-7.8935	899.98
1151.10000	-746.82	-5.8429	-0.49352	-56.926	-7.9531	899.85
1156.10000	-754.39	-5.8975	-0.49949	-57.16	-8.0121	899.98
1161.10000	-757.33	-5.9506	-0.50535	-57.049	-8.071	900.02
1166.10000	-761.45	-6.003	-0.51117	-57.026	-8.13	900.1
1171.10000	-773.71	-6.0555	-0.51702	-57.608	-8.1889	899.89
1176.10000	-779.57	-6.1098	-0.5231	-57.691	-8.248	900.04
1181.10000	-788.33	-6.1643	-0.52925	-57.981	-8.3069	899.9
1186.10000	-796.43	-6.2191	-0.53546	-58.214	-8.3666	900.07
1191.10000	-805.55	-6.2716	-0.54146	-58.529	-8.4262	900.1
1196.10000	-816.14	-6.3258	-0.5477	-58.93	-8.4859	900.02
1201.10000	-824.73	-6.38	-0.55396	-59.178	-8.545	899.82
1206.10000	-835.87	-6.4356	-0.56044	-59.591	-8.6054	900.04
1211.10000	-842.33	-6.4891	-0.5667	-59.675	-8.6656	900.05
1216.10000	-852.37	-6.5425	-0.57299	-60.008	-8.7251	900.03
1221.10000	-866	-6.5974	-0.57951	-60.572	-8.7854	899.93
1226.10000	-873.62	-6.6519	-0.58602	-60.709	-8.846	900.04
1231.10000	-885.27	-6.7061	-0.59253	-61.118	-8.9057	899.86
1236.10000	-892.96	-6.7588	-0.5989	-61.258	-8.9661	900.11
1241.10000	-906.52	-6.8131	-0.60552	-61.777	-9.0265	899.98
1246.10000	-919.78	-6.8675	-0.61219	-62.265	-9.087	899.96
1251.10000	-931.18	-6.9201	-0.61868	-62.629	-9.1472	900.11
1256.10000	-942.16	-6.9725	-0.62517	-62.956	-9.2075	900.02
1261.10000	-954.68	-7.0254	-0.63179	-63.373	-9.2676	899.84
1266.10000	-969.85	-7.0793	-0.63857	-63.945	-9.3281	900.06
1271.10000	-982.33	-7.1328	-0.64536	-64.331	-9.3883	900.21
1276.10000	-997.78	-7.1871	-0.65229	-64.891	-9.4492	899.93
1281.10000	-1009.5	-7.2392	-0.65896	-65.215	-9.5096	900.01
1286.10000	-1024.5	-7.2929	-0.66591	-65.723	-9.5695	900.07
1291.10000	-1042.1	-7.3465	-0.67288	-66.391	-9.6302	899.98
1296.10000	-1057.7	-7.4001	-0.67992	-66.911	-9.6904	899.95
1301.10000	-1070.5	-7.453	-0.68691	-67.248	-9.7504	900.04
1306.10000	-1086	-7.5064	-0.69399	-67.74	-9.8105	900.11
1311.10000	-1106.8	-7.5604	-0.70123	-68.542	-9.8708	900.09
1316.10000	-1125.6	-7.6132	-0.70836	-69.214	-9.931	899.89
1321.10000	-1139.7	-7.6657	-0.71549	-69.582	-9.9909	899.87
1326.10000	-1156.2	-7.7169	-0.7225	-70.096	-10.05	900.03
1331.10000	-1178.6	-7.7691	-0.72969	-70.941	-10.109	900.03
1336.10000	-1195.8	-7.8212	-0.73692	-71.458	-10.168	899.87
1341.10000	-1212.3	-7.8748	-0.74441	-71.905	-10.227	900.25
1346.10000	-1229.1	-7.927	-0.75177	-72.367	-10.286	900.12
1351.10000	-1257.4	-7.9791	-0.75917	-73.487	-10.345	899.7
1356.10000	-1273.4	-8.0313	-0.76663	-73.867	-10.404	900.02
1361.10000	-1299.3	-8.0823	-0.77397	-74.82	-10.463	900.18
1366.10000	-1318.6	-8.1347	-0.78157	-75.357	-10.523	899.89
1371.10000	-1342	-8.1849	-0.78892	-76.132	-10.582	900.14
1376.10000	-1373.5	-8.2369	-0.79657	-77.322	-10.642	900.11
1381.10000	-1401	-8.2898	-0.80443	-78.253	-10.702	899.82
1386.10000	-1423.5	-8.3425	-0.81231	-78.884	-10.761	899.94
1391.10000	-1443.5	-8.3935	-0.82	-79.381	-10.821	900.3
1396.10000	-1478.6	-8.4463	-0.82803	-80.662	-10.881	899.94
1401.10000	-1501.6	-8.5002	-0.8363	-81.245	-10.94	899.68
1406.10000	-1529.8	-8.5553	-0.8448	-82.068	-11.001	900.1
1411.10000	-1565.9	-8.607	-0.85285	-83.33	-11.061	900.48
1416.10000	-1601.8	-8.6556	-0.86048	-84.59	-11.12	899.66
1421.10000	-1623.9	-8.7069	-0.8686	-85.064	-11.181	899.53
1426.10000	-1648.3	-8.759	-0.87692	-85.63	-11.241	901.03
1431.10000	-1711.7	-8.8108	-0.88524	-88.185	-11.301	900.26
1436.10000	-1733.8	-8.8618	-0.89351	-88.586	-11.36	898.62
1441.10000	-1737	-8.9158	-0.90234	-87.972	-11.421	899.96
1446.10000	-1773.2	-8.9693	-0.91118	-89.019	-11.482	902.31
1451.10000	-1859.4	-9.0182	-0.91933	-92.584	-11.541	899.33
1456.10000	-1864.9	-9.0726	-0.92847	-92.014	-11.601	896.4
1461.10000	-1815.2	-9.1273	-0.93774	-88.743	-11.662	902.14
1466.10000	-1934.3	-9.1758	-0.94603	-93.779	-11.722	904.45
1471.10000	-2031.5	-9.2245	-0.95444	-97.661	-11.78	894.75
1476.10000	-1909.2	-9.2847	-0.96491	-90.833	-11.842	900.62
1481.10000	-2039.5	-9.3318	-0.97319	-96.236	-11.901	906.82
1486.10000	-2152.6	-9.3795	-0.98164	-100.7	-11.959	891.39
1491.10000	-2037.6	-9.4389	-0.99225	-94.333	-12.021	903.44
1496.10000	-2226	-9.4835	-1.0003	-102.22	-12.079	904.84
1501.10000	-2269	-9.5352	-1.0097	-103.21	-12.137	891.54
1506.10000	-2191	-9.5926	-1.0203	-98.628	-12.198	903.94
1511.10000	-2371.5	-9.6376	-1.0286	-105.86	-12.256	904.59
1516.10000	-2440.9	-9.6893	-1.0383	-107.9	-12.314	892.38
1521.10000	-2347	-9.7491	-1.0497	-102.59	-12.375	900.73
1522.56390	-2593.3	-9.7677	-1.0532	-112.95	-12.405	888.38
1523.06390	-2454.3	-9.7757	-1.0547	-106.73	-12.406	2888.7
1523.56390	-2271.9	-9.7769	-1.055	-98.781	-12.4	7328.4
1524.06390	-2114.8	-9.7768	-1.0549	-91.953	-12.393	6223.6
1524.56390	-1963.2	-9.776	-1.0548	-85.37	-12.386	7240.5
1525.06390	-1808.6	-9.7741	-1.0544	-78.678	-12.378	7684.4
1525.56390	-1669.3	-9.7724	-1.0541	-72.643	-12.371	6468.9
1526.06390	-1523	-9.7706	-1.0538	-66.294	-12.363	5963.9
1526.56390	-1392.5	-9.7694	-1.0535	-60.632	-12.356	5822.7
1527.06390	-1277	-9.769	-1.0535	-55.606	-12.35	7176.1
1527.56390	-1154.7	-9.7683	-1.0533	-50.286	-12.343	5680.6
1528.06390	-1020.1	-9.7663	-1.0529	-44.443	-12.335	7018.5
1528.56390	-903.53	-9.7648	-1.0526	-39.376	-12.328	5836.6
1529.06390	-787.78	-9.763	-1.0523	-34.343	-12.32	3377.2
1529.56390	-677.99	-9.761	-1.0519	-29.568	-12.312	4845
1530.06390	-586.04	-9.7596	-1.0517	-25.566	-12.305	3815
1530.56390	-501.72	-9.7581	-1.0514	-21.894	-12.298	4162.7
1531.06390	-411.41	-9.7554	-1.0509	-17.961	-12.289	5308.3
1531.56390	-341.89	-9.7533	-1.0505	-14.935	-12.282	5653.4
1532.06390	-275.37	-9.7505	-1.0499	-12.036	-12.273	5605.4
1532.56390	-214.54	-9.7478	-1.0494	-9.379	-12.264	4841.3
1533.06390	-176.2	-9.7471	-1.0493	-7.7065	-12.258	7811.7
1533.56390	-131.01	-9.7452	-1.0489	-5.7317	-12.249	4800.5
1534.06390	-106.18	-9.7454	-1.049	-4.6454	-12.244	5166
1534.56390	-83.169	-9.7469	-1.0492	-3.6366	-12.233	2512.5
1535.06390	-75.108	-9.7498	-1.0498	-3.283	-12.223	5186.6
1535.56390	-69.963	-9.7515	-1.0501	-3.0565	-12.213	4290.3
1536.06390	-65.795	-9.7529	-1.0504	-2.8739	-12.202	4621.8
1536.56390	-62.942	-9.7542	-1.0506	-2.7484	-12.194	6858.4
1537.06390	-60.852	-9.7551	-1.0508	-2.6561	-12.186	7950.6
1537.56390	-60.299	-9.756	-1.051	-2.6317	-12.178	5491
1538.06390	-58.387	-9.7568	-1.0511	-2.5484	-12.168	7358.4
1538.56390	-56.986	-9.7576	-1.0513	-2.4862	-12.161	7972.2
1539.06390	-58.205	-9.7583	-1.0514	-2.5387	-12.15	6613.7
1539.56390	-56.637	-9.759	-1.0515	-2.4711	-12.143	4748
1540.06390	-55.409	-9.7597	-1.0517	-2.418	-12.134	5890.9
1540.56390	-54.61	-9.7602	-1.0518	-2.383	-12.124	5296.2
1541.06390	-54.274	-9.7608	-1.0519	-2.3687	-12.115	5992.6
1541.56390	-54.134	-9.7614	-1.052	-2.3617	-12.109	6842.2
1542.06390	-54.011	-9.7618	-1.0521	-2.3557	-12.099	7949.9
1542.56390	-54.099	-9.7622	-1.0522	-2.3593	-12.09	3321.2
1543.06390	-54.007	-9.7626	-1.0522	-2.3566	-12.082	3084.3
1543.56390	-54.141	-9.7629	-1.0523	-2.3598	-12.072	4365.1
1544.06390	-54.271	-9.7634	-1.0524	-2.3654	-12.064	7328.5
1544.56390	-54.213	-9.7637	-1.0524	-2.3635	-12.054	7970.9
1545.06390	-54.371	-9.764	-1.0525	-2.3693	-12.047	7998.7
1545.56390	-54.268	-9.7643	-1.0525	-2.3662	-12.037	7107.1
1546.06390	-54.338	-9.7646	-1.0526	-2.3671	-12.029	5577.6
1546.56390	-54.555	-9.7649	-1.0527	-2.3761	-12.019	5708.6
1547.06390	-54.409	-9.7652	-1.0527	-2.3734	-12.011	5402.1
1547.56390	-54.565	-9.7655	-1.0528	-2.3768	-12.002	7511.2
1548.06390	-54.586	-9.7658	-1.0528	-2.38	-11.995	7978.8
1548.56390	-54.488	-9.766	-1.0529	-2.3755	-11.985	7237.1
1549.06390	-54.649	-9.7663	-1.0529	-2.381	-11.976	7967
1549.56390	-54.58	-9.7665	-1.053	-2.3791	-11.969	5422.5
1550.06390	-54.696	-9.7668	-1.053	-2.3825	-11.959	4161.2
1550.56390	-54.879	-9.767	-1.0531	-2.3926	-11.95	7096.8
1551.06390	-54.654	-9.7672	-1.0531	-2.3832	-11.942	4656.1
1551.56390	-54.855	-9.7674	-1.0531	-2.3899	-11.931	6760.9
1552.06390	-54.981	-9.7677	-1.0532	-2.3969	-11.923	2805.7
1552.56390	-55.044	-9.7678	-1.0532	-2.3956	-11.915	6966.1
1553.06390	-55.167	-9.7682	-1.0533	-2.4039	-11.906	7182.7
1553.56390	-55.052	-9.7682	-1.0533	-2.3989	-11.898	5120.6
1554.06390	-55.293	-9.7684	-1.0533	-2.4069	-11.887	6800.5
1554.56390	-55.393	-9.7687	-1.0534	-2.4146	-11.879	7458.2
1555.06390	-55.28	-9.7689	-1.0534	-2.4067	-11.871	4919.9
1555.56390	-55.672	-9.7691	-1.0535	-2.423	-11.861	7544.8
1556.06390	-55.398	-9.7692	-1.0535	-2.414	-11.854	7886
1556.56390	-55.524	-9.7694	-1.0535	-2.4164	-11.844	6657.8
1557.06390	-55.751	-9.7695	-1.0536	-2.4282	-11.836	3634.5
1557.56390	-55.607	-9.7698	-1.0536	-2.4213	-11.827	6522
1558.06390	-55.881	-9.77	-1.0536	-2.4308	-11.819	5157.3
1558.56390	-55.83	-9.7701	-1.0537	-2.4312	-11.81	5054.7
1559.06390	-55.792	-9.7702	-1.0537	-2.4278	-11.802	4773.7
1559.56390	-56.076	-9.7704	-1.0537	-2.4422	-11.792	5858.6
1560.06390	-55.92	-9.7705	-1.0537	-2.4369	-11.783	4681.7
1560.56390	-56.209	-9.7706	-1.0538	-2.4465	-11.774	4332.2
1561.06390	-56.211	-9.7708	-1.0538	-2.448	-11.766	6088
1561.56390	-56.205	-9.771	-1.0538	-2.4469	-11.758	6708.4
1562.06390	-56.214	-9.7711	-1.0538	-2.4466	-11.748	6895.1
1562.56390	-56.195	-9.7713	-1.0539	-2.4472	-11.741	7581.7
1563.06390	-56.307	-9.7714	-1.0539	-2.4508	-11.732	7135.6
1563.56390	-56.408	-9.7715	-1.0539	-2.4573	-11.722	7704
1564.06390	-56.322	-9.7716	-1.0539	-2.4518	-11.715	5830.1
1564.56390	-56.419	-9.7718	-1.054	-2.4544	-11.705	6781.9
1565.06390	-56.481	-9.7719	-1.054	-2.4591	-11.696	7589.8
1565.56390	-56.412	-9.7721	-1.054	-2.4532	-11.689	7982.2
1566.06390	-56.564	-9.7722	-1.054	-2.4612	-11.679	3792.8
1566.56390	-56.411	-9.7724	-1.0541	-2.4559	-11.671	6334.8
1567.06390	-56.589	-9.7725	-1.0541	-2.4592	-11.662	7365.1
1567.56390	-56.249	-9.7727	-1.0542	-2.4485	-11.653	6330.5
1568.06390	-56.326	-9.7727	-1.0542	-2.4513	-11.644	6689.6
1568.56390	-56.404	-9.7728	-1.0542	-2.4553	-11.636	7831.2
1569.06390	-56.298	-9.7728	-1.0542	-2.451	-11.626	5602.5
1569.56390	-56.452	-9.7729	-1.0542	-2.456	-11.618	5643.7
1570.06390	-56.656	-9.7731	-1.0542	-2.4647	-11.608	6804.6
1570.56390	-56.374	-9.7732	-1.0542	-2.4535	-11.6	5918.7
1571.06390	-56.412	-9.7733	-1.0543	-2.453	-11.593	5309.4
1571.56390	-56.674	-9.7734	-1.0543	-2.4674	-11.582	6066.9
1572.06390	-56.452	-9.7735	-1.0543	-2.4583	-11.575	7916.3
1572.56390	-56.622	-9.7736	-1.0543	-2.463	-11.566	6273.7
1573.06390	-56.538	-9.7736	-1.0543	-2.4611	-11.556	5542.2
1573.56390	-56.525	-9.7738	-1.0544	-2.458	-11.55	2778.2
1574.06390	-56.695	-9.7739	-1.0544	-2.4671	-11.538	6479.5
1574.56390	-56.587	-9.7741	-1.0544	-2.462	-11.53	7113.5
1575.06390	-56.642	-9.7741	-1.0544	-2.4619	-11.521	4766.4
1575.56390	-56.598	-9.7742	-1.0544	-2.4628	-11.514	3555.2
1576.06390	-56.477	-9.7743	-1.0544	-2.4569	-11.504	2036.8
1576.56390	-56.769	-9.7745	-1.0545	-2.4689	-11.495	7620.6
1577.06390	-56.64	-9.7745	-1.0545	-2.4646	-11.486	6809.2
1577.56390	-56.592	-9.7746	-1.0545	-2.4605	-11.477	3335.9
1578.06390	-56.711	-9.7746	-1.0545	-2.4665	-11.47	7300.8
1578.56390	-56.478	-9.7746	-1.0545	-2.4551	-11.461	3817
1579.06390	-56.551	-9.7748	-1.0546	-2.4589	-11.453	5028.8
1579.56390	-56.745	-9.7749	-1.0546	-2.4689	-11.443	5737.3
1580.06390	-56.437	-9.7751	-1.0546	-2.4542	-11.434	7047.5
1580.56390	-56.569	-9.7751	-1.0546	-2.4597	-11.426	6572.1
1581.06390	-56.516	-9.7752	-1.0546	-2.4607	-11.417	7641.3
1581.56390	-56.564	-9.7753	-1.0547	-2.4584	-11.408	5808.4
1582.06390	-56.588	-9.7753	-1.0547	-2.461	-11.4	7339.6
1582.56390	-56.499	-9.7754	-1.0547	-2.4581	-11.39	6844.6
1583.06390	-56.486	-9.7755	-1.0547	-2.4585	-11.381	7757.1
1583.56390	-56.605	-9.7757	-1.0547	-2.4614	-11.374	6644.5
1584.06390	-56.392	-9.7757	-1.0547	-2.4541	-11.364	6354.7
1584.56390	-56.579	-9.7758	-1.0548	-2.4582	-11.355	6589.5
1585.06390	-56.49	-9.7759	-1.0548	-2.4592	-11.348	5836.9
1585.56390	-56.423	-9.7761	-1.0548	-2.4523	-11.338	7906.4
1586.06390	-56.556	-9.7761	-1.0548	-2.4616	-11.329	6624.6
1586.56390	-56.301	-9.7761	-1.0548	-2.4501	-11.322	6653
1587.06390	-56.348	-9.7762	-1.0548	-2.4502	-11.312	7941.7
1587.56390	-56.452	-9.7764	-1.0549	-2.4571	-11.304	6955.1
1588.06390	-56.25	-9.7764	-1.0549	-2.4472	-11.295	6512.2
1588.56390	-56.333	-9.7765	-1.0549	-2.4487	-11.286	5368.2
1589.06390	-56.236	-9.7766	-1.0549	-2.4461	-11.278	6716.7
1589.56390	-55.854	-9.7766	-1.0549	-2.4307	-11.269	7944.5
1590.06390	-55.657	-9.7764	-1.0549	-2.4183	-11.259	7997.6
1590.56390	-55.357	-9.7762	-1.0548	-2.4088	-11.251	5278.4
1591.06390	-55.143	-9.7761	-1.0548	-2.3962	-11.242	7765.9
1591.56390	-55.178	-9.776	-1.0548	-2.4006	-11.233	7989.9
1592.06390	-54.747	-9.7759	-1.0548	-2.3829	-11.224	6037.7
1592.56390	-54.852	-9.7757	-1.0547	-2.3832	-11.217	6212.1
1593.06390	-54.691	-9.7757	-1.0547	-2.3785	-11.207	6873.2
1593.56390	-54.535	-9.7756	-1.0547	-2.3697	-11.199	5753
1594.06390	-54.385	-9.7755	-1.0547	-2.3649	-11.19	7134.5
1594.56390	-54.175	-9.7754	-1.0547	-2.3582	-11.18	4010.4
1595.06390	-53.99	-9.7754	-1.0547	-2.3498	-11.173	6838
1595.56390	-53.969	-9.7752	-1.0546	-2.3477	-11.162	3154.7
1596.06390	-53.823	-9.7752	-1.0546	-2.3423	-11.155	5147.8
1596.56390	-53.712	-9.7752	-1.0546	-2.3356	-11.147	7876.5
1597.06390	-53.716	-9.7752	-1.0546	-2.3391	-11.138	7301.9
1597.56390	-53.36	-9.775	-1.0546	-2.3227	-11.128	3250.4
1598.06390	-53.317	-9.775	-1.0546	-2.3177	-11.118	2903
1598.56390	-53.117	-9.7749	-1.0546	-2.3128	-11.111	4089.8
1599.06390	-53.078	-9.7749	-1.0546	-2.3089	-11.101	5736
1599.56390	-53.084	-9.7748	-1.0546	-2.3084	-11.095	6361.4
1600.06390	-52.855	-9.7748	-1.0545	-2.302	-11.086	3556
1600.56390	-52.842	-9.7748	-1.0546	-2.2966	-11.076	3861.3
1601.06390	-52.727	-9.7745	-1.0545	-2.2926	-11.068	4287.6
1601.56390	-52.544	-9.7745	-1.0545	-2.2857	-11.059	1794.4
1602.06390	-52.531	-9.7745	-1.0545	-2.2843	-11.05	6805.9
1602.56390	-52.338	-9.7745	-1.0545	-2.2773	-11.043	5535
1603.06390	-52.098	-9.7745	-1.0545	-2.266	-11.034	3550.7
1603.56390	-52.097	-9.7745	-1.0545	-2.2653	-11.024	4856.4
1604.06390	-51.908	-9.7743	-1.0545	-2.2606	-11.016	4042.4
1604.56390	-51.793	-9.7744	-1.0545	-2.2519	-11.008	1244
1605.06390	-51.783	-9.7744	-1.0545	-2.2539	-10.998	2133.3
1605.56390	-51.467	-9.7743	-1.0545	-2.2394	-10.988	2766.8
1606.06390	-51.522	-9.7743	-1.0545	-2.2404	-10.98	3754.1
1606.56390	-51.423	-9.7743	-1.0545	-2.2397	-10.971	7612.8
1607.06390	-51.162	-9.7743	-1.0545	-2.2249	-10.963	7983.2
1607.56390	-51.275	-9.7742	-1.0544	-2.232	-10.956	7355.3
1608.06390	-50.954	-9.7741	-1.0544	-2.2178	-10.946	4757.3
1608.56390	-50.972	-9.774	-1.0544	-2.2153	-10.936	6635.3
1609.06390	-50.781	-9.774	-1.0544	-2.2109	-10.929	7940.9
1609.56390	-50.682	-9.774	-1.0544	-2.2068	-10.919	6644
1610.06390	-50.658	-9.7739	-1.0544	-2.203	-10.91	7941.3
1610.56390	-50.62	-9.7739	-1.0544	-2.2037	-10.902	7011.6
1611.06390	-50.343	-9.7739	-1.0544	-2.1893	-10.892	7852.3
1611.56390	-50.317	-9.7738	-1.0544	-2.1883	-10.884	5982.7
1612.06390	-49.918	-9.7738	-1.0544	-2.1724	-10.877	6672.1
1612.56390	-50.079	-9.7737	-1.0543	-2.1755	-10.867	6473.2
1613.06390	-49.963	-9.7738	-1.0544	-2.1765	-10.859	7933.9
1613.56390	-49.834	-9.7737	-1.0543	-2.167	-10.849	7848.2
1614.06390	-49.724	-9.7736	-1.0543	-2.1639	-10.841	2374.1
1614.56390	-49.585	-9.7736	-1.0543	-2.1611	-10.834	3524.2
1615.06390	-49.379	-9.7736	-1.0543	-2.1475	-10.824	4396.3
1615.56390	-49.347	-9.7735	-1.0543	-2.1465	-10.815	2438.3
1616.06390	-49.122	-9.7734	-1.0543	-2.1375	-10.805	4488.6
1616.56390	-49.142	-9.7734	-1.0543	-2.135	-10.8	6078.9
1617.06390	-48.974	-9.7733	-1.0543	-2.1314	-10.789	2837.4
1617.56390	-48.718	-9.7733	-1.0543	-2.1199	-10.78	1919.8
1618.06390	-48.842	-9.7733	-1.0543	-2.1246	-10.772	6955.6
1618.56390	-48.671	-9.7733	-1.0543	-2.1201	-10.762	6243
1619.06390	-48.574	-9.7733	-1.0543	-2.111	-10.754	5050.5
1619.56390	-48.466	-9.7733	-1.0543	-2.1106	-10.746	1410.1
1620.06390	-48.303	-9.7733	-1.0543	-2.1022	-10.737	6375.2
1620.56390	-48.341	-9.7731	-1.0542	-2.1027	-10.728	4316.9
1621.06390	-48.187	-9.7731	-1.0542	-2.0991	-10.719	4295
1621.56390	-48.012	-9.7731	-1.0542	-2.0868	-10.711	1050.3
1622.06390	-47.863	-9.773	-1.0542	-2.0828	-10.701	2717.4
1622.56390	-47.748	-9.7731	-1.0542	-2.0806	-10.694	3716.8
1623.06390	-47.6	-9.773	-1.0542	-2.0701	-10.685	3238.4
1623.56390	-47.683	-9.773	-1.0542	-2.0744	-10.676	4458.7
1624.06390	-47.359	-9.7729	-1.0542	-2.0633	-10.668	4101.9
1624.56390	-47.391	-9.7729	-1.0542	-2.0624	-10.66	3929
1625.06390	-47.154	-9.773	-1.0542	-2.053	-10.649	4515.5
1625.56390	-47.084	-9.7729	-1.0542	-2.0481	-10.641	2765.7
1626.06390	-47.174	-9.7729	-1.0542	-2.0533	-10.632	5086.8
1626.56390	-46.867	-9.7729	-1.0542	-2.0418	-10.625	3268.2
1627.06390	-46.674	-9.7728	-1.0542	-2.0307	-10.616	4022.5
1627.56390	-46.828	-9.7727	-1.0542	-2.0372	-10.606	4608.3
1628.06390	-46.386	-9.7728	-1.0542	-2.0192	-10.598	4686
1628.56390	-46.478	-9.7728	-1.0542	-2.0201	-10.588	2785.4
1629.06390	-46.482	-9.7727	-1.0542	-2.0246	-10.58	3350.7
1629.56390	-46.148	-9.7728	-1.0542	-2.0058	-10.571	4827.3
1630.06390	-46.249	-9.7727	-1.0542	-2.0113	-10.563	5969.9
1630.56390	-45.986	-9.7727	-1.0542	-2.0021	-10.553	6514.2
1631.06390	-45.947	-9.7727	-1.0542	-1.9985	-10.545	4885.6
1631.56390	-45.86	-9.7727	-1.0542	-1.9953	-10.536	4153.4
1632.06390	-45.805	-9.7728	-1.0542	-1.9947	-10.527	7308.6
1632.56390	-45.703	-9.7727	-1.0542	-1.9882	-10.52	3014.5
1633.06390	-45.515	-9.7727	-1.0542	-1.9834	-10.511	1897.9
1633.56390	-45.381	-9.7726	-1.0541	-1.9738	-10.501	3247.7
1634.06390	-45.353	-9.7727	-1.0542	-1.9744	-10.491	6987.5
1634.56390	-45.099	-9.7726	-1.0542	-1.9639	-10.485	4474.3
1635.06390	-45.108	-9.7726	-1.0541	-1.9611	-10.474	6091.3
1635.56390	-45.044	-9.7726	-1.0542	-1.9589	-10.466	7562.4
1636.06390	-44.676	-9.7727	-1.0542	-1.9434	-10.458	4863.7
1636.56390	-44.796	-9.7725	-1.0541	-1.9486	-10.45	1947
1637.06390	-44.667	-9.7725	-1.0541	-1.9452	-10.441	4619.3
1637.56390	-44.562	-9.7725	-1.0541	-1.9375	-10.432	4745.9
1638.06390	-44.519	-9.7725	-1.0541	-1.9374	-10.423	3287.6
1638.56390	-44.28	-9.7724	-1.0541	-1.9287	-10.415	4243.5
1639.06390	-44.226	-9.7724	-1.0541	-1.9226	-10.405	2839.7
1639.56390	-44.066	-9.7724	-1.0541	-1.9182	-10.399	2742.8
1640.06390	-43.888	-9.7725	-1.0541	-1.911	-10.389	897.56
1640.56390	-44.003	-9.7722	-1.0541	-1.9135	-10.38	4697.5
1641.06390	-43.689	-9.7722	-1.0541	-1.9042	-10.371	4280.4
1641.56390	-43.553	-9.7723	-1.0541	-1.8944	-10.363	3422.3
1642.06390	-43.573	-9.7722	-1.0541	-1.8973	-10.353	4237.3
1642.56390	-43.257	-9.7723	-1.0541	-1.8833	-10.345	4581.4
1643.06390	-43.336	-9.7722	-1.0541	-1.8849	-10.336	3385
1643.56390	-43.191	-9.7723	-1.0541	-1.8798	-10.327	3647.6
1644.06390	-42.946	-9.7722	-1.0541	-1.8695	-10.319	1439.8
1644.56390	-42.872	-9.7722	-1.0541	-1.8654	-10.311	3872.7
1645.06390	-42.77	-9.7722	-1.054	-1.8614	-10.302	3803.7
1645.56390	-42.61	-9.7722	-1.0541	-1.8541	-10.292	2753.5
1646.06390	-42.647	-9.7723	-1.0541	-1.8568	-10.285	4630
1646.56390	-42.384	-9.7721	-1.054	-1.8469	-10.274	4393.8
1647.06390	-42.327	-9.7721	-1.054	-1.8393	-10.266	1880.1
1647.56390	-42.237	-9.7722	-1.054	-1.8403	-10.257	1987.9
1648.06390	-42.094	-9.7722	-1.054	-1.8294	-10.249	4023.1
1648.56390	-42.012	-9.7722	-1.054	-1.827	-10.24	4526.6
1649.06390	-41.847	-9.7722	-1.054	-1.8237	-10.231	2312.8
1649.56390	-41.699	-9.7721	-1.054	-1.8141	-10.223	2523.8
1650.06390	-41.673	-9.7721	-1.054	-1.8122	-10.214	2547.3
1650.56390	-41.38	-9.7721	-1.054	-1.801	-10.205	4182.3
1651.06390	-41.376	-9.7721	-1.054	-1.7992	-10.197	4306.1
1651.56390	-41.223	-9.7721	-1.054	-1.7957	-10.189	3143.6
1652.06390	-40.974	-9.772	-1.054	-1.7836	-10.18	2487.2
1652.56390	-40.962	-9.772	-1.054	-1.7841	-10.17	3176.7
1653.06390	-40.712	-9.772	-1.054	-1.7734	-10.163	2163.6
1653.56390	-40.689	-9.772	-1.054	-1.7694	-10.156	3668
1654.06390	-40.669	-9.7719	-1.054	-1.7713	-10.144	3627
1654.56390	-40.416	-9.7719	-1.054	-1.76	-10.137	2528.8
1655.06390	-40.23	-9.7718	-1.054	-1.7477	-10.127	3421.3
1655.56390	-40.148	-9.7718	-1.054	-1.7483	-10.119	4758.1
1656.06390	-39.941	-9.7718	-1.054	-1.7366	-10.111	4094.7
1656.56390	-39.831	-9.7717	-1.054	-1.733	-10.102	1500.7
1657.06390	-39.585	-9.7718	-1.054	-1.7234	-10.092	2256.3
1657.56390	-39.538	-9.7717	-1.054	-1.7209	-10.083	3625.1
1658.06390	-39.442	-9.7717	-1.054	-1.7184	-10.075	5209.8
1658.56390	-39.132	-9.7717	-1.054	-1.7058	-10.065	1953.7
1659.06390	-39.211	-9.7716	-1.0539	-1.7043	-10.057	3406.1
1659.56390	-39.088	-9.7716	-1.0539	-1.7037	-10.048	3864.8
1660.06390	-38.776	-9.7716	-1.0539	-1.6877	-10.04	3162.9
1660.56390	-38.762	-9.7715	-1.0539	-1.6864	-10.031	2783.4
1661.06390	-38.537	-9.7714	-1.0539	-1.6785	-10.021	4723.9
1661.56390	-38.414	-9.7714	-1.0539	-1.6703	-10.013	5297.7
1662.06390	-38.377	-9.7714	-1.0539	-1.6701	-10.004	3459.5
1662.56390	-37.998	-9.7714	-1.0539	-1.6548	-9.996	3044.9
1663.06390	-37.992	-9.7713	-1.0539	-1.6529	-9.9868	2596.3
1663.56390	-37.819	-9.7713	-1.0539	-1.6495	-9.9783	5231.8
1664.06390	-37.607	-9.7713	-1.0539	-1.6356	-9.9698	2398.6
1664.56390	-37.579	-9.7712	-1.0539	-1.6357	-9.9605	891.39
1665.06390	-37.21	-9.7711	-1.0539	-1.6207	-9.9524	3738.9
1665.56390	-37.15	-9.7711	-1.0539	-1.6161	-9.9436	2997.4
1666.06390	-36.948	-9.7711	-1.0538	-1.6103	-9.9346	1641.8
1666.56390	-36.919	-9.7709	-1.0538	-1.6056	-9.9248	1668.8
1667.06390	-36.931	-9.7709	-1.0538	-1.6078	-9.9163	1729.5
1667.56390	-36.616	-9.771	-1.0538	-1.5935	-9.9071	824.99
1668.06390	-36.435	-9.7709	-1.0538	-1.5846	-9.8996	1111.9
1668.56390	-36.392	-9.7709	-1.0538	-1.5847	-9.8911	4440.2
1669.06390	-35.998	-9.7708	-1.0538	-1.5698	-9.8817	2038.1
1669.56390	-36.008	-9.7708	-1.0538	-1.5687	-9.8737	664.76
1670.06390	-35.846	-9.7708	-1.0538	-1.5626	-9.8644	255.49
1670.56390	-35.636	-9.7707	-1.0538	-1.5514	-9.8543	4939.1
1671.06390	-35.561	-9.7706	-1.0538	-1.5478	-9.8461	979.29
1671.56390	-35.337	-9.7706	-1.0537	-1.5404	-9.8386	1504.3
1672.06390	-35.25	-9.7705	-1.0537	-1.5341	-9.8298	1341.9
1672.56390	-35.041	-9.7704	-1.0537	-1.5255	-9.8214	1840.9
1673.06390	-34.796	-9.7704	-1.0537	-1.5151	-9.812	3261.1
1673.56390	-34.786	-9.7703	-1.0537	-1.5132	-9.8023	1197.5
1674.06390	-34.875	-9.7704	-1.0537	-1.5225	-9.7944	1415
1674.56390	-34.845	-9.7705	-1.0537	-1.5154	-9.7843	1319.8
1675.06390	-35.052	-9.7707	-1.0538	-1.5262	-9.7765	3994.1
1675.56390	-34.872	-9.7708	-1.0538	-1.5189	-9.7675	620.09
1676.06390	-34.693	-9.7708	-1.0538	-1.5084	-9.7586	632.97
1676.56390	-34.79	-9.7709	-1.0538	-1.5149	-9.7504	117.38
1677.06390	-34.612	-9.771	-1.0538	-1.5073	-9.7413	980.76
1677.56390	-34.609	-9.771	-1.0538	-1.5063	-9.7328	1193.1
1678.06390	-34.325	-9.7711	-1.0539	-1.496	-9.7249	1462.1
1678.56390	-34.35	-9.7712	-1.0539	-1.4955	-9.7158	1594.8
1679.06390	-34.233	-9.7713	-1.0539	-1.4894	-9.7064	1070.7
1679.56390	-34.016	-9.7713	-1.0539	-1.4812	-9.6981	606.84
1680.06390	-34.026	-9.7713	-1.0539	-1.4807	-9.689	66.327
1680.56390	-33.829	-9.7714	-1.0539	-1.4762	-9.6809	1112.6
1681.06390	-33.699	-9.7714	-1.0539	-1.4646	-9.6719	602.84
1681.56390	-33.723	-9.7714	-1.0539	-1.4677	-9.6626	4026.4
1682.06390	-33.443	-9.7714	-1.0539	-1.4592	-9.6549	4050.4
1682.56390	-33.349	-9.7716	-1.0539	-1.4517	-9.6434	5650.9
