Time(sec)	Force(kgf)	LGauge(mm)	Strain	Stress(MPa)	Stroke(mm)	TC1(C)
0.00000	-161.3	0.28149	0.017259	-20.516	0.058535	27.652
1.00000	-161.15	2.0375e-05	4.6382e-06	-20.123	0.058705	27.518
2.00000	-161.26	-4.1371e-05	-2.7126e-06	-20.142	0.058576	27.51
3.00000	-161.49	-3.6419e-05	-2.3869e-06	-20.168	0.059211	27.365
4.00000	-161.47	-7.5227e-05	-4.5723e-06	-20.154	0.057288	27.425
5.00000	-161.39	-6.6258e-05	-2.3889e-06	-20.15	0.057334	27.475
6.00000	-161.6	1.7394e-05	2.6739e-07	-20.18	0.061406	27.453
7.00000	-163.69	0.00031354	1.9768e-05	-20.441	0.063019	27.583
8.00000	-168.95	0.00060323	3.9257e-05	-21.093	0.063236	28.498
9.00000	-176.17	0.0010057	6.5747e-05	-21.993	0.064056	30.722
10.00000	-184.29	0.0015659	0.00010119	-23.011	0.065657	34.234
11.00000	-188.06	0.0033686	0.00022179	-23.491	0.06666	38.825
12.00000	-191.15	0.0059849	0.00039734	-23.879	0.067311	44.616
13.00000	-192.15	0.010122	0.00067257	-24.007	0.068454	51.189
14.00000	-192.27	0.015047	0.0010004	-24.036	0.068871	58.635
15.00000	-192.33	0.020167	0.001345	-24.05	0.075621	66.715
15.49740	-192.4	0.02287	0.0015232	-24.055	0.076142	70.937
16.49740	-192.11	0.028416	0.0018918	-24.034	0.076143	79.753
17.49740	-192.18	0.033811	0.0022539	-24.053	0.075744	88.861
18.49740	-192.31	0.038642	0.0025746	-24.076	0.074904	97.973
19.49740	-192.72	0.042305	0.002819	-24.126	0.074773	106.66
19.61610	-192.82	0.042577	0.0028367	-24.14	0.075167	107.62
20.61610	-193.41	0.044605	0.0029714	-24.223	0.073571	115.24
21.61610	-194.18	0.044891	0.0029918	-24.322	0.072949	121.36
22.61610	-191.93	0.044967	0.0029963	-24.042	0.072655	125.34
23.61610	-188.9	0.044937	0.0029929	-23.656	0.071166	127.25
24.61610	-186.59	0.044729	0.0029799	-23.37	0.071777	128.05
25.61610	-186.27	0.044558	0.0029677	-23.331	0.070458	128.41
26.61610	-189.91	0.044663	0.002974	-23.792	0.070285	129.03
27.61610	-196.81	0.045222	0.0030097	-24.654	0.070295	130.73
28.61610	-194.64	0.048964	0.0032581	-24.382	0.069664	133.78
29.61610	-194	0.053087	0.0035312	-24.308	0.068961	138.11
30.61610	-193.82	0.057899	0.0038526	-24.3	0.069	143.37
31.61610	-193.8	0.063215	0.0042054	-24.303	0.068942	149.7
32.61610	-193.9	0.068616	0.0045632	-24.318	0.068768	156.66
33.61610	-193.89	0.074154	0.0049292	-24.329	0.067829	164.17
34.61610	-193.91	0.079254	0.005267	-24.341	0.067478	171.9
35.61610	-194.2	0.08357	0.0055539	-24.386	0.067361	179.5
36.61610	-194.78	0.086406	0.005742	-24.466	0.067454	186.77
37.61610	-195.47	0.088299	0.0058679	-24.552	0.06671	192.99
38.61610	-196.1	0.08922	0.0059285	-24.631	0.067059	198.1
39.61610	-197.07	0.089706	0.0059617	-24.756	0.066961	202.17
40.61610	-197.22	0.090167	0.0059955	-24.776	0.065806	205.21
41.61610	-196.39	0.091807	0.0061011	-24.671	0.06672	207.79
42.61610	-195.86	0.094117	0.0062555	-24.603	0.065683	210.49
43.61610	-195.51	0.097378	0.0064729	-24.568	0.065299	213.78
44.61610	-195.31	0.10144	0.0067434	-24.554	0.065965	217.76
45.61610	-195.4	0.10604	0.0070459	-24.575	0.065855	222.51
46.61610	-195.43	0.11079	0.0073618	-24.587	0.064972	227.87
47.61610	-195.38	0.11564	0.0076847	-24.58	0.066021	233.89
48.61610	-195.3	0.11978	0.007957	-24.579	0.066046	240
49.61610	-195.71	0.12373	0.0082159	-24.642	0.065797	246.25
50.61610	-196.02	0.12747	0.0084627	-24.684	0.066008	252.4
51.61610	-196.11	0.13069	0.0086781	-24.694	0.065982	258.17
52.61610	-196.28	0.13339	0.0088549	-24.722	0.066067	263.75
53.61610	-196.5	0.13567	0.0090039	-24.759	0.066167	268.83
54.61610	-196.77	0.13799	0.0091586	-24.799	0.06671	273.37
55.61610	-197.15	0.14029	0.0093079	-24.849	0.066057	277.66
56.52240	-196.98	0.14263	0.0094642	-24.828	0.066107	281.39
57.52240	-196.91	0.14598	0.0096837	-24.828	0.066099	285.57
58.52240	-196.9	0.14955	0.0099188	-24.838	0.065758	289.89
58.76030	-196.91	0.15042	0.0099765	-24.835	0.065604	290.98
59.76030	-196.97	0.15383	0.010201	-24.854	0.065564	295.7
60.76030	-197.2	0.1577	0.010456	-24.882	0.06637	300.62
61.76030	-197.19	0.16168	0.01072	-24.886	0.065597	305.78
62.76030	-197.15	0.16579	0.010991	-24.889	0.065565	311.14
63.76030	-197.37	0.16978	0.011253	-24.926	0.06503	316.58
64.76030	-197.48	0.17366	0.011511	-24.94	0.064574	322.11
65.76030	-197.55	0.17738	0.011758	-24.959	0.064845	327.51
66.76030	-197.61	0.18078	0.01198	-24.97	0.064391	332.82
67.76030	-197.77	0.18388	0.012183	-24.998	0.065238	337.98
68.76030	-198.02	0.1867	0.012372	-25.037	0.064936	342.94
69.76030	-198.13	0.18987	0.01258	-25.051	0.065877	347.77
70.76030	-198.25	0.19303	0.012789	-25.066	0.066121	352.52
71.76030	-198.3	0.1963	0.013002	-25.085	0.06593	357.37
72.76030	-198.27	0.19971	0.013228	-25.089	0.065131	362.19
73.76030	-198.58	0.20319	0.013458	-25.134	0.065395	367.04
74.76030	-198.64	0.20666	0.013686	-25.141	0.065964	371.96
75.76030	-198.57	0.21016	0.013915	-25.138	0.064504	376.92
76.76030	-198.71	0.21379	0.014154	-25.171	0.06511	381.85
77.76030	-198.86	0.21742	0.014393	-25.19	0.065292	386.94
78.76030	-198.96	0.22057	0.014598	-25.212	0.065516	392.05
79.76030	-199.11	0.22405	0.014828	-25.227	0.065099	397.17
80.76030	-199.09	0.22744	0.01505	-25.235	0.066117	402.23
81.76030	-199.23	0.23077	0.015269	-25.26	0.065883	407.28
82.76030	-199.4	0.23422	0.015494	-25.284	0.065291	412.29
83.76030	-199.46	0.23767	0.015721	-25.302	0.065348	417.26
84.76030	-199.54	0.24114	0.015948	-25.315	0.065379	422.31
85.76030	-199.67	0.24461	0.016174	-25.338	0.066212	427.26
86.76030	-199.78	0.24793	0.01639	-25.361	0.066452	432.29
87.76030	-199.96	0.25115	0.016602	-25.387	0.065766	437.3
88.76030	-200.08	0.25419	0.016802	-25.404	0.066217	442.22
89.76030	-200.13	0.25742	0.017013	-25.418	0.06704	447.22
90.76030	-200.23	0.2608	0.017235	-25.438	0.06673	452.2
91.76030	-200.3	0.26408	0.017457	-25.455	0.06654	457.12
92.76030	-200.52	0.26758	0.017683	-25.48	0.067213	462.08
93.76030	-200.54	0.27103	0.017906	-25.49	0.068055	467.02
94.76030	-200.54	0.27447	0.018135	-25.503	0.067887	472.01
95.76030	-200.69	0.27791	0.018362	-25.526	0.069351	477.12
96.76030	-200.83	0.28144	0.01859	-25.547	0.069147	482.07
97.45740	-200.84	0.28366	0.018735	-25.553	0.07072	485.55
98.45740	-200.82	0.2867	0.018935	-25.56	0.071332	490.58
98.48380	-200.9	0.28678	0.018941	-25.568	0.071245	490.71
99.48380	-201.15	0.28995	0.01915	-25.608	0.072072	495.7
100.48380	-201.33	0.29305	0.019351	-25.631	0.072063	500.69
101.48380	-201.18	0.29642	0.019572	-25.614	0.073632	505.65
102.48380	-201.22	0.2997	0.019786	-25.626	0.073802	510.55
103.48380	-201.38	0.30315	0.020013	-25.65	0.074528	515.56
104.48380	-201.49	0.30654	0.020231	-25.678	0.074052	520.65
105.48380	-201.74	0.30993	0.020453	-25.704	0.074968	525.58
106.48380	-201.66	0.31326	0.020669	-25.703	0.074254	530.58
107.48380	-201.72	0.31653	0.020882	-25.719	0.075286	535.77
108.48380	-202.04	0.31938	0.021067	-25.769	0.076289	540.71
109.48380	-202.03	0.3224	0.021264	-25.765	0.076854	545.65
110.48380	-202.16	0.32573	0.021481	-25.791	0.077942	550.62
111.48380	-202.23	0.32898	0.021693	-25.805	0.077606	555.65
112.48380	-202.18	0.3323	0.02191	-25.81	0.077711	560.57
113.48380	-202.5	0.3357	0.02213	-25.855	0.078375	565.46
114.48380	-202.57	0.3392	0.02236	-25.867	0.07816	570.56
115.48380	-202.62	0.34278	0.022595	-25.869	0.07869	575.62
116.48380	-202.51	0.34616	0.022814	-25.868	0.079052	580.6
117.48380	-202.7	0.34964	0.023044	-25.904	0.08008	585.64
118.48380	-202.86	0.35295	0.023258	-25.926	0.07994	590.73
119.48380	-202.93	0.35598	0.023454	-25.944	0.081005	595.69
120.48380	-203.04	0.3592	0.023665	-25.961	0.080113	600.72
121.48380	-202.98	0.36263	0.023893	-25.965	0.079549	605.54
122.48380	-203.14	0.36623	0.024124	-25.987	0.080598	610.54
123.48380	-203.07	0.36971	0.02435	-25.979	0.080417	615.48
124.48380	-203.25	0.37319	0.024576	-26.006	0.081785	620.41
125.48380	-203.14	0.37694	0.024822	-26.011	0.08169	625.4
126.48380	-203.37	0.38071	0.025066	-26.043	0.081663	630.39
127.48380	-203.69	0.38418	0.025292	-26.081	0.081463	635.47
128.48380	-203.47	0.38773	0.025524	-26.063	0.08151	640.42
129.48380	-203.36	0.39129	0.025753	-26.06	0.081596	645.54
130.48380	-203.78	0.39475	0.025976	-26.114	0.08187	650.63
131.48380	-203.98	0.3982	0.026202	-26.142	0.082238	655.6
132.48380	-203.68	0.40188	0.026441	-26.114	0.081854	660.6
133.48380	-203.82	0.40542	0.02667	-26.139	0.081947	665.62
134.48380	-204.21	0.40882	0.026889	-26.194	0.081913	670.59
135.48380	-204.05	0.41261	0.027137	-26.176	0.081414	675.6
136.48380	-204.11	0.41595	0.02735	-26.192	0.082197	680.6
137.48380	-204.25	0.41894	0.027546	-26.213	0.082903	685.44
138.48380	-204.43	0.42219	0.027756	-26.242	0.081909	690.24
138.49270	-204.39	0.42222	0.027758	-26.237	0.081875	690.28
139.49270	-204.56	0.4259	0.027996	-26.266	0.082412	695.2
140.49270	-204.53	0.42957	0.028232	-26.266	0.083128	700.17
141.49270	-204.38	0.43322	0.028471	-26.25	0.083227	705.23
142.49270	-204.59	0.43687	0.028707	-26.294	0.082204	710.32
143.49270	-204.71	0.44059	0.028949	-26.315	0.082344	715.39
144.49270	-204.81	0.4442	0.029182	-26.329	0.082772	720.43
145.49270	-204.83	0.44756	0.029402	-26.342	0.082512	725.55
146.49270	-204.86	0.45125	0.029642	-26.353	0.082445	730.59
147.49270	-204.98	0.4549	0.02988	-26.367	0.082631	735.66
148.49270	-205.08	0.45796	0.030074	-26.384	0.08096	740.74
149.49270	-204.19	0.45881	0.03013	-26.271	0.08084	745.53
150.49270	-195	0.45861	0.030118	-25.099	0.082181	749.51
151.49270	-185.33	0.45841	0.030105	-23.854	0.081128	750.01
152.49270	-183	0.45919	0.030157	-23.545	0.082571	748.34
153.49270	-189.08	0.46077	0.030256	-24.323	0.082606	748.65
154.49270	-205.06	0.46589	0.030588	-26.397	0.082428	752.3
155.49270	-204.8	0.4869	0.031943	-26.401	0.083273	774.32
156.49270	-197.79	0.49083	0.032198	-25.512	0.082692	803.98
157.49270	-173.84	0.48616	0.031897	-22.4	0.082108	812.52
158.49270	-164.8	0.47847	0.0314	-21.231	0.081921	813.53
159.49270	-161.96	0.46927	0.030806	-20.852	0.082144	811.41
160.49270	-142.97	0.46387	0.030455	-18.403	0.080853	807.54
161.49270	-94.409	0.47374	0.031094	-12.158	0.081625	802.83
162.49270	-95.838	0.47604	0.031244	-12.346	0.082517	801.96
163.49270	-99.229	0.481	0.031564	-12.78	0.081116	806
164.49270	-99.844	0.488	0.032014	-12.868	0.081429	812.61
165.49270	-99.889	0.49543	0.032494	-12.888	0.081739	820.33
166.49270	-99.892	0.50207	0.032923	-12.893	0.082586	827.69
167.49270	-99.891	0.5075	0.033274	-12.895	0.081294	834.54
168.49270	-99.831	0.51193	0.033561	-12.889	0.081979	840.35
169.49270	-100.04	0.51574	0.033804	-12.93	0.08246	845.68
170.49270	-100.25	0.51995	0.034077	-12.955	0.082024	850.9
171.49270	-100.37	0.52349	0.034306	-12.967	0.082324	855.91
172.49270	-100.41	0.52744	0.03456	-12.976	0.08254	860.59
173.49270	-100.31	0.53151	0.034822	-12.968	0.081681	865.64
174.49270	-100.33	0.53594	0.035105	-12.978	0.083157	870.64
175.49270	-100.47	0.54014	0.035377	-12.999	0.082509	875.66
176.49270	-100.57	0.54446	0.035657	-13.009	0.082692	880.68
177.49270	-100.58	0.54844	0.035914	-13.013	0.082602	885.71
178.49270	-100.59	0.55253	0.036177	-13.027	0.082434	890.66
179.43630	-100.47	0.55604	0.036401	-13.011	0.08293	895.4
180.43630	-100.73	0.55995	0.036652	-13.046	0.082874	900.37
181.43630	-100.67	0.56407	0.036916	-13.047	0.082263	905.25
182.43630	-100.84	0.56816	0.037177	-13.067	0.083081	910.23
182.56840	-101.04	0.56872	0.037214	-13.089	0.082911	910.9
183.56840	-101.03	0.57264	0.037465	-13.099	0.082672	915.88
184.56840	-100.94	0.57643	0.037711	-13.088	0.081721	920.76
185.56840	-100.95	0.58042	0.037964	-13.098	0.085956	925.86
186.56840	-101.18	0.5843	0.038212	-13.125	0.086668	931
187.56840	-101.24	0.58815	0.038458	-13.134	0.088488	935.96
188.56840	-101.22	0.59192	0.038703	-13.133	0.087361	940.96
189.56840	-101.16	0.59554	0.038934	-13.129	0.086976	945.97
190.56840	-101.23	0.59925	0.03917	-13.147	0.086908	950.89
191.56840	-101.22	0.60313	0.039418	-13.159	0.08675	955.72
192.56840	-101.47	0.60689	0.039662	-13.184	0.086315	960.74
193.56840	-101.31	0.61059	0.039898	-13.163	0.086119	965.86
194.56840	-101.36	0.61431	0.040137	-13.174	0.084959	970.87
195.56840	-101.47	0.61805	0.040374	-13.191	0.086163	975.86
196.56840	-101.38	0.62164	0.040607	-13.19	0.085384	980.84
197.56840	-101.56	0.62504	0.040826	-13.208	0.087726	985.87
198.56840	-101.49	0.62882	0.04107	-13.196	0.087524	990.91
199.56840	-101.45	0.63256	0.041306	-13.196	0.086259	995.94
200.56840	-101.42	0.6361	0.041534	-13.205	0.085772	1000.9
201.56840	-101.57	0.63963	0.041763	-13.229	0.086365	1006
202.56840	-101.49	0.64329	0.041994	-13.22	0.088011	1011.1
203.56840	-101.77	0.6469	0.042224	-13.259	0.088004	1016.2
204.56840	-101.74	0.65004	0.042424	-13.249	0.086946	1021.2
205.56840	-101.72	0.65322	0.042629	-13.257	0.085254	1026.2
206.56840	-101.74	0.65628	0.042826	-13.266	0.086489	1031.2
207.56840	-102.01	0.65894	0.042995	-13.298	0.085501	1036.1
208.56840	-102.05	0.66174	0.043172	-13.305	0.08551	1041.1
209.56840	-102.27	0.66423	0.043329	-13.333	0.085252	1046.1
210.56840	-102.22	0.66681	0.043493	-13.332	0.085699	1051
211.56840	-102.12	0.66927	0.04365	-13.322	0.087	1056.1
212.56840	-102.46	0.67132	0.043782	-13.369	0.087337	1061.2
213.56840	-102.46	0.67281	0.043878	-13.367	0.086737	1066.4
214.56840	-102.98	0.6738	0.04394	-13.432	0.087466	1071.3
215.56840	-103.62	0.67436	0.043975	-13.519	0.088984	1076.3
216.56840	-103.08	0.67486	0.044004	-13.451	0.08727	1081.4
217.56840	-102.47	0.67519	0.044026	-13.379	0.086641	1086.3
218.56840	-101.41	0.67535	0.044037	-13.229	0.087782	1091.3
219.56840	-99.781	0.6755	0.044047	-13.019	0.088965	1096.2
220.37520	-98.405	0.67587	0.04407	-12.844	0.089256	1100.3
221.37520	-96.904	0.67598	0.044077	-12.649	0.089819	1105.2
221.79870	-95.865	0.67597	0.044076	-12.51	0.090128	1107.3
222.79870	-94.21	0.676	0.044083	-12.294	0.089838	1112.2
223.79870	-92.528	0.67604	0.044084	-12.084	0.090183	1117.3
224.79870	-90.906	0.67609	0.04409	-11.862	0.089085	1122.3
225.79870	-89.277	0.67619	0.044094	-11.652	0.089407	1127.3
226.79870	-87.56	0.67629	0.044101	-11.43	0.088733	1132.3
227.79870	-86.121	0.67638	0.044106	-11.24	0.088519	1137.3
228.79870	-84.365	0.67637	0.044108	-11.013	0.088302	1142.3
229.79870	-82.94	0.67637	0.044107	-10.812	0.088103	1147.2
230.79870	-81.259	0.67635	0.044107	-10.601	0.087791	1152.2
231.79870	-79.947	0.67641	0.044109	-10.433	0.088266	1157
232.79870	-78.818	0.67637	0.044106	-10.29	0.089283	1162
233.79870	-77.818	0.67642	0.044111	-10.157	0.090723	1167.1
234.79870	-76.821	0.67638	0.044106	-10.022	0.09152	1172.1
235.79870	-75.75	0.67645	0.044108	-9.8781	0.091215	1177.2
236.79870	-74.745	0.67639	0.044105	-9.756	0.090908	1182.1
237.79870	-74.135	0.67639	0.044104	-9.6799	0.090287	1187
238.79870	-73.601	0.6764	0.044104	-9.6018	0.090935	1191.9
239.79870	-72.88	0.67628	0.044097	-9.5101	0.09023	1197
240.79870	-71.588	0.67599	0.044079	-9.3466	0.090233	1201.4
241.79870	-69.526	0.67466	0.043995	-9.0756	0.089662	1202.6
242.79870	-68.487	0.67342	0.043916	-8.9354	0.089062	1202.2
243.79870	-68.354	0.67166	0.043804	-8.9117	0.088196	1201.4
244.79870	-67.447	0.67081	0.043749	-8.7955	0.08927	1200.7
245.79870	-67.356	0.66955	0.04367	-8.7902	0.090387	1200.2
246.79870	-66.623	0.66931	0.043651	-8.6982	0.09282	1200
247.79870	-66.791	0.66868	0.04361	-8.7101	0.093245	1200.1
248.79870	-65.908	0.66858	0.043609	-8.5932	0.092812	1200.1
249.79870	-66.104	0.66832	0.043594	-8.6186	0.092444	1200.1
250.79870	-65.884	0.66777	0.043558	-8.5961	0.091508	1200.1
251.79870	-65.467	0.66804	0.043576	-8.5361	0.090873	1200.1
252.79870	-65.969	0.66771	0.043556	-8.6006	0.091721	1200.2
253.79870	-65.047	0.66794	0.043568	-8.4834	0.09053	1200.3
254.79870	-65.773	0.66762	0.043547	-8.5805	0.091037	1200.2
255.79870	-65.209	0.66737	0.043531	-8.5083	0.09107	1200.1
256.79870	-64.568	0.66738	0.04353	-8.4217	0.09239	1200.1
257.79870	-65.618	0.66689	0.043499	-8.5573	0.092413	1200.1
258.79870	-64.939	0.66671	0.043488	-8.4741	0.094132	1200.1
259.79870	-64.344	0.66679	0.043493	-8.3982	0.090627	1200.1
260.79870	-64.079	0.66691	0.043501	-8.3572	0.091332	1200.2
261.40520	-65.076	0.66637	0.043465	-8.4815	0.091247	1200.1
262.40520	-64.866	0.66612	0.043448	-8.4656	0.091488	1200.2
262.43040	-64.827	0.66609	0.043446	-8.4602	0.091443	1200.2
263.43040	-64.254	0.66614	0.04345	-8.3828	0.091867	1200.1
264.43040	-65.255	0.66565	0.043417	-8.5071	0.092694	1200
265.43040	-64.711	0.66553	0.043408	-8.4333	0.09326	1200.1
266.43040	-63.923	0.66564	0.043416	-8.3372	0.094038	1200
267.43040	-63.578	0.6658	0.043426	-8.2946	0.094549	1200.1
268.43040	-63.216	0.66583	0.043428	-8.2489	0.094786	1200
269.43040	-65.03	0.66497	0.043373	-8.4793	0.095141	1199.9
270.43040	-64.308	0.66482	0.043363	-8.3816	0.095267	1199.8
271.43040	-63.792	0.66483	0.043367	-8.3228	0.09481	1199.8
272.43040	-63.507	0.66498	0.043375	-8.2892	0.095147	1199.9
273.43040	-63.333	0.66512	0.043385	-8.2615	0.094686	1199.9
274.43040	-62.903	0.66529	0.043399	-8.1947	0.095032	1199.9
275.43040	-62.622	0.66543	0.04341	-8.1665	0.094462	1199.8
276.43040	-64.545	0.66474	0.043366	-8.4197	0.093589	1199.9
277.43040	-64.364	0.6647	0.043364	-8.3928	0.09361	1200.1
278.43040	-63.676	0.66494	0.04338	-8.2976	0.093677	1200.1
279.43040	-63.115	0.66505	0.043385	-8.2307	0.093333	1200
280.43040	-62.794	0.66515	0.04339	-8.1915	0.093156	1199.9
281.43040	-64.422	0.66451	0.043349	-8.4054	0.092888	1199.9
282.43040	-64.171	0.66448	0.043345	-8.3725	0.093221	1199.9
283.43040	-63.369	0.66454	0.043349	-8.2608	0.09277	1199.8
284.43040	-63.088	0.66476	0.043362	-8.2233	0.09346	1199.8
285.43040	-62.992	0.66483	0.043367	-8.2177	0.09301	1199.9
286.43040	-62.986	0.66482	0.043366	-8.2161	0.092203	1200.1
287.43040	-62.575	0.66506	0.043382	-8.1664	0.092567	1200.1
288.43040	-62.413	0.66528	0.043393	-8.1367	0.093276	1200.1
289.43040	-61.975	0.66536	0.043401	-8.0794	0.092788	1200.1
290.43040	-61.898	0.66558	0.043414	-8.074	0.093731	1200.2
291.43040	-62.629	0.66549	0.04341	-8.1732	0.097119	1200.1
292.43040	-64.418	0.66469	0.043359	-8.3978	0.096335	1200.3
293.43040	-63.702	0.66461	0.043356	-8.3024	0.095385	1200.3
294.43040	-63.061	0.66447	0.043345	-8.2206	0.09451	1200.2
295.43040	-64.052	0.66422	0.043326	-8.3567	0.095224	1200
296.43040	-64.287	0.6642	0.043323	-8.3862	0.096408	1200
297.43040	-64.126	0.66445	0.043343	-8.3625	0.098162	1200.2
298.43040	-63.553	0.6645	0.043348	-8.283	0.098266	1200.4
299.43040	-62.991	0.66437	0.043339	-8.2158	0.098717	1200.2
300.43040	-62.768	0.66444	0.043344	-8.1897	0.09748	1200.1
301.43040	-62.528	0.66472	0.043364	-8.1588	0.098873	1200.1
302.34230	-62.687	0.66497	0.043377	-8.1756	0.098673	1200.1
303.34230	-64.132	0.66421	0.04333	-8.3602	0.098876	1200.1
304.34230	-63.75	0.66408	0.043324	-8.3107	0.097411	1200
305.34230	-63.307	0.66412	0.043324	-8.2616	0.097713	1200
306.34230	-63.138	0.66449	0.043348	-8.2353	0.098801	1200
306.47630	-63.031	0.66459	0.043353	-8.22	0.099312	1200
307.47630	-62.772	0.66477	0.043367	-8.1875	0.097921	1200
308.47630	-62.705	0.6646	0.043356	-8.1725	0.099143	1200.1
309.47630	-62.456	0.665	0.043379	-8.1408	0.09822	1200.1
310.47630	-62.215	0.66533	0.043399	-8.1132	0.099053	1200.1
311.47630	-61.923	0.66525	0.043398	-8.0797	0.099012	1200
312.47630	-61.86	0.6652	0.043392	-8.0668	0.09776	1200
313.47630	-61.951	0.66553	0.043412	-8.0792	0.099145	1200
314.47630	-64.181	0.66488	0.043371	-8.3686	0.097895	1200
315.47630	-63.775	0.66458	0.043353	-8.3113	0.098275	1200
316.47630	-63.277	0.66467	0.043356	-8.2518	0.098011	1200.1
317.47630	-62.913	0.66508	0.043383	-8.2059	0.098546	1200
318.47630	-62.769	0.66506	0.043383	-8.1914	0.097666	1200
319.47630	-62.745	0.66495	0.043374	-8.1785	0.097185	1200
320.47630	-62.578	0.6653	0.043395	-8.1619	0.096907	1200
321.47630	-62.245	0.66555	0.043413	-8.1181	0.097378	1200.1
322.47630	-61.902	0.66562	0.043419	-8.0782	0.097468	1200.2
323.47630	-61.799	0.66557	0.043414	-8.0648	0.097218	1200.1
324.47630	-61.809	0.66562	0.043415	-8.0611	0.097674	1200
325.47630	-63.987	0.66529	0.043395	-8.3425	0.098356	1200.1
326.47630	-63.734	0.66506	0.043385	-8.3075	0.097448	1200
327.47630	-63.192	0.66487	0.043375	-8.2374	0.097455	1200
328.47630	-62.643	0.66488	0.043373	-8.171	0.098076	1199.8
329.47630	-64.085	0.66467	0.043358	-8.3557	0.09712	1199.7
330.47630	-64.23	0.66467	0.043359	-8.3705	0.097913	1199.9
331.47630	-63.678	0.66481	0.043367	-8.3035	0.097139	1200
332.47630	-63.175	0.66504	0.043382	-8.2392	0.096861	1199.8
333.47630	-62.932	0.66518	0.043393	-8.2161	0.097659	1199.7
334.47630	-62.829	0.66526	0.0434	-8.1962	0.096549	1200
335.47630	-62.706	0.66539	0.043406	-8.1736	0.097373	1200
336.47630	-62.397	0.66547	0.043412	-8.1325	0.097364	1200.1
337.47630	-62.223	0.66552	0.043414	-8.1141	0.096258	1200
338.47630	-62.023	0.6656	0.04342	-8.0907	0.097902	1200.1
339.47630	-61.989	0.66586	0.043434	-8.0863	0.098363	1200
340.47630	-62.031	0.66597	0.043439	-8.0892	0.097437	1200
341.47630	-64.121	0.66542	0.043404	-8.3607	0.097836	1200.1
342.47630	-63.885	0.66532	0.043397	-8.3321	0.097686	1200.3
343.29010	-63.547	0.66542	0.043403	-8.2886	0.097239	1200.2
344.29010	-63.033	0.66553	0.043409	-8.219	0.09697	1200.1
345.29010	-62.734	0.66567	0.043418	-8.178	0.097351	1200
345.62740	-62.854	0.66577	0.043425	-8.2005	0.097248	1200
346.62740	-62.567	0.666	0.043441	-8.1609	0.097423	1200
347.62740	-62.318	0.66619	0.043455	-8.1261	0.098233	1200
348.62740	-61.99	0.66617	0.043457	-8.085	0.09713	1200
349.62740	-62.042	0.66625	0.04346	-8.0981	0.097342	1200
350.62740	-61.922	0.66625	0.043459	-8.0742	0.096913	1200.1
351.62740	-61.657	0.6664	0.04347	-8.0388	0.096926	1200.1
352.62740	-61.586	0.66653	0.043482	-8.0283	0.09701	1200.1
353.62740	-61.475	0.66667	0.043486	-8.0225	0.095441	1200.1
354.62740	-61.45	0.66676	0.043492	-8.0205	0.097264	1200.1
355.62740	-61.421	0.66698	0.043507	-8.0042	0.096557	1200.1
356.62740	-61.142	0.66696	0.043505	-7.9762	0.096567	1200.1
357.62740	-61.392	0.66701	0.043508	-8.009	0.09566	1199.9
358.62740	-64.113	0.66611	0.043451	-8.3613	0.096443	1199.9
359.62740	-63.988	0.66629	0.043461	-8.3453	0.096169	1200
360.62740	-63.695	0.66637	0.043467	-8.3004	0.095966	1200
361.62740	-63.042	0.66646	0.043472	-8.2171	0.094726	1199.9
362.62740	-62.565	0.66655	0.043479	-8.1573	0.095281	1199.6
363.62740	-62.676	0.66663	0.043485	-8.1775	0.09528	1199.6
364.62740	-62.925	0.66673	0.043493	-8.2064	0.095164	1199.8
365.62740	-62.892	0.66659	0.043481	-8.2031	0.096054	1199.8
366.62740	-62.782	0.66676	0.043491	-8.1838	0.095633	1199.8
367.62740	-62.711	0.66682	0.043494	-8.1763	0.096117	1199.9
368.62740	-62.576	0.66698	0.043504	-8.1653	0.096651	1200
369.62740	-62.498	0.66726	0.043519	-8.1575	0.096132	1199.9
370.62740	-62.451	0.66749	0.043534	-8.1447	0.096698	1200
371.62740	-62.398	0.66761	0.043545	-8.1356	0.096294	1200
372.62740	-62.517	0.66745	0.043537	-8.1536	0.095358	1200.1
373.62740	-64.39	0.66675	0.043491	-8.4008	0.095643	1200.1
374.62740	-63.98	0.66674	0.04349	-8.3494	0.096225	1200.2
375.62740	-63.729	0.66674	0.043489	-8.3071	0.094974	1200.3
376.62740	-63.244	0.66675	0.043488	-8.2497	0.0947	1200.1
377.62740	-62.895	0.66698	0.043503	-8.2062	0.096332	1200.1
378.62740	-62.641	0.6672	0.043522	-8.1679	0.095957	1200.1
379.62740	-62.565	0.6675	0.043538	-8.1663	0.0958	1200.1
380.62740	-62.483	0.66758	0.043545	-8.1505	0.095592	1200.1
381.62740	-64.069	0.66683	0.043499	-8.3471	0.095454	1200
382.62740	-63.777	0.66683	0.043502	-8.3157	0.095254	1200.1
383.62740	-63.585	0.6668	0.043499	-8.2974	0.095455	1200.2
384.25080	-63.406	0.66682	0.043499	-8.2645	0.09579	1200.2
385.25080	-62.936	0.66682	0.043497	-8.2008	0.096004	1200.1
385.27790	-62.949	0.66685	0.043499	-8.2036	0.096214	1200.1
386.27790	-62.636	0.66687	0.0435	-8.1697	0.096005	1200
387.27790	-62.503	0.66698	0.043505	-8.1577	0.096052	1200.1
388.27790	-62.539	0.66713	0.043514	-8.157	0.096119	1200.1
389.27790	-62.269	0.66727	0.043523	-8.1184	0.096065	1200.1
390.27790	-64.401	0.66633	0.043463	-8.3931	0.096343	1199.9
391.27790	-64.643	0.66628	0.043458	-8.4308	0.096456	1200
392.27790	-64.152	0.6663	0.043459	-8.3685	0.095447	1200.2
393.27790	-63.704	0.66637	0.043464	-8.3084	0.096739	1200.1
394.27790	-63.567	0.66647	0.04347	-8.2919	0.096345	1200
395.27790	-63.43	0.66619	0.043453	-8.271	0.096591	1200.1
396.27790	-63.331	0.66593	0.043435	-8.2618	0.096697	1200
397.27790	-63.508	0.66564	0.043416	-8.2839	0.096766	1200
398.27790	-63.325	0.66555	0.043411	-8.2608	0.096385	1200
399.27790	-63.054	0.66536	0.043397	-8.2206	0.096509	1199.9
400.27790	-62.792	0.66528	0.043394	-8.1939	0.09727	1199.8
401.27790	-62.654	0.66517	0.043386	-8.1768	0.09571	1199.8
402.27790	-62.994	0.66511	0.043384	-8.2198	0.097642	1199.9
403.27790	-62.949	0.66517	0.04339	-8.2066	0.095867	1200
404.27790	-62.75	0.6651	0.043387	-8.184	0.096285	1200
405.27790	-62.582	0.66508	0.043384	-8.163	0.09698	1200
406.27790	-62.613	0.66505	0.043383	-8.1714	0.09584	1200
407.27790	-62.568	0.66502	0.043384	-8.1644	0.097067	1200
408.27790	-62.592	0.66501	0.043382	-8.1615	0.095356	1200
409.27790	-62.339	0.66501	0.043383	-8.1292	0.095955	1200
410.27790	-62.422	0.66504	0.043385	-8.1418	0.096962	1200
411.27790	-62.442	0.66491	0.043379	-8.1433	0.097261	1200
412.27790	-62.579	0.66483	0.043371	-8.1565	0.096184	1200
413.27790	-62.618	0.66482	0.043371	-8.1601	0.09656	1200
414.27790	-62.592	0.66482	0.043369	-8.1605	0.098363	1199.9
415.27790	-62.904	0.66485	0.04337	-8.2037	0.097871	1200
416.27790	-63.085	0.66505	0.043382	-8.2259	0.097437	1200
417.27790	-63.29	0.66524	0.043392	-8.252	0.098009	1200.1
418.27790	-63.511	0.66552	0.043411	-8.2802	0.097102	1200.2
419.27790	-63.253	0.6655	0.043411	-8.2449	0.096814	1200.3
420.27790	-63.101	0.66533	0.043403	-8.2318	0.097251	1200.1
421.27790	-63.965	0.66202	0.043191	-8.3422	0.097412	1197.8
422.27790	-64.976	0.65603	0.042807	-8.4649	0.098216	1192.9
423.27790	-64.906	0.65041	0.042447	-8.4504	0.098095	1187.2
424.27790	-64.783	0.64513	0.04211	-8.4294	0.098539	1181.6
425.18980	-64.653	0.64087	0.041836	-8.4238	0.098678	1176.5
426.18980	-64.642	0.63628	0.041541	-8.4212	0.098815	1171.3
427.18980	-64.725	0.63208	0.041272	-8.4239	0.098417	1166.1
428.18980	-64.585	0.62789	0.041006	-8.399	0.099773	1161.1
429.18980	-64.503	0.62375	0.040739	-8.3895	0.099122	1156.1
430.18980	-64.487	0.61984	0.040491	-8.387	0.098421	1151
430.42680	-64.406	0.61882	0.040427	-8.3775	0.098434	1149.9
431.42680	-64.529	0.61469	0.040161	-8.3931	0.09926	1144.8
432.42680	-64.544	0.61055	0.039901	-8.392	0.099159	1139.9
433.42680	-64.613	0.60624	0.039624	-8.3952	0.099518	1134.9
434.42680	-64.555	0.60182	0.039345	-8.3772	0.099447	1129.8
435.42680	-64.769	0.59747	0.039062	-8.4083	0.098799	1124.8
436.42680	-64.876	0.59327	0.038792	-8.425	0.098906	1119.9
437.42680	-64.907	0.58911	0.038523	-8.423	0.098652	1114.9
438.42680	-65.032	0.58519	0.038271	-8.4349	0.098601	1109.8
439.42680	-64.95	0.58082	0.037989	-8.4227	0.099641	1104.7
440.42680	-65.061	0.1481	0.0097011	-8.206	0.068983	1099.7
441.10000	-65.086	0.096429	0.0063175	-8.1805	0.077466	1099
446.10000	-72.722	0.005079	0.00033219	-9.0832	0.059227	1099.4
451.10000	-74.62	0.0012455	8.0308e-05	-9.3189	0.0059158	1100
456.10000	-75.415	0.0011748	7.7322e-05	-9.4174	-0.052087	1100
461.10000	-74.979	0.001973	0.00013215	-9.3645	-0.10982	1099.8
466.10000	-74.893	0.0031354	0.00021088	-9.3544	-0.16754	1100.1
471.10000	-74.268	0.0033199	0.00022042	-9.2784	-0.22534	1100.1
476.10000	-73.356	0.0030053	0.00019738	-9.1601	-0.28356	1100
481.10000	-72.947	0.0032501	0.00021673	-9.1101	-0.34142	1099.9
486.10000	-72.956	0.002868	0.00019477	-9.1094	-0.39982	1100
491.10000	-72.688	0.002761	0.0001843	-9.078	-0.45747	1100
496.10000	-72.606	0.0023174	0.00015188	-9.0668	-0.5158	1099.9
501.10000	-72.953	0.0022195	0.00014446	-9.1101	-0.57341	1100
506.10000	-72.826	0.0022729	0.0001506	-9.0967	-0.63125	1100
511.10000	-73.215	0.0020878	0.00014208	-9.1443	-0.68941	1100.1
516.10000	-72.606	0.0019057	0.00012708	-9.0684	-0.74684	1099.9
521.10000	-72.85	0.0017402	0.00011616	-9.0988	-0.80498	1099.9
526.10000	-72.78	0.0014341	9.3367e-05	-9.0901	-0.86259	1099.8
531.10000	-73.137	0.0012962	8.5539e-05	-9.1324	-0.92057	1100.1
536.10000	-72.823	0.00096919	6.5265e-05	-9.0937	-0.97818	1100.1
541.10000	-72.791	0.00080656	5.621e-05	-9.0876	-1.0353	1100
546.10000	-73.221	0.00043969	2.9323e-05	-9.1445	-1.0924	1100
551.10000	-73.46	0.00020168	1.298e-05	-9.1737	-1.1499	1100.1
556.10000	-73.425	0.00015448	8.8931e-06	-9.1693	-1.207	1100.1
561.10000	-73.339	-0.00026267	-1.7291e-05	-9.1589	-1.2636	1100
566.10000	-73.16	-0.00040998	-2.4558e-05	-9.1332	-1.3204	1100
571.10000	-73.113	-0.00072652	-4.8536e-05	-9.128	-1.3771	1100
576.10000	-73.675	-0.00094885	-6.3189e-05	-9.1974	-1.4338	1100.1
581.10000	-73.698	-0.0010175	-7.0013e-05	-9.2041	-1.4915	1100
586.10000	-73.863	-0.0013932	-9.3286e-05	-9.2231	-1.5485	1100
591.10000	-73.413	-0.0015526	-0.00010007	-9.1644	-1.6056	1099.9
596.10000	-83.349	-0.00030205	-1.9562e-05	-10.407	-1.6634	1100.1
601.10000	-108.2	-0.011223	-0.00074794	-13.499	-1.7207	1100.1
606.10000	-125.95	-0.045588	-0.0030463	-15.68	-1.7778	1100
611.10000	-136.76	-0.095036	-0.0063575	-16.967	-1.8353	1099.9
616.10000	-145.12	-0.14607	-0.0097835	-17.943	-1.8924	1100
621.10000	-153.08	-0.19818	-0.013299	-18.859	-1.95	1100
626.10000	-157.33	-0.24841	-0.016701	-19.319	-2.0077	1100
631.10000	-163.45	-0.29967	-0.020185	-20.002	-2.065	1099.9
636.10000	-168.69	-0.35136	-0.023705	-20.57	-2.1224	1100
641.10000	-173.37	-0.40379	-0.027288	-21.067	-2.1804	1100.1
646.10000	-179.09	-0.45616	-0.030882	-21.681	-2.2378	1099.9
651.10000	-183.84	-0.50658	-0.034357	-22.179	-2.2955	1099.9
656.10000	-188.72	-0.55926	-0.037999	-22.686	-2.3535	1100
661.10000	-193.83	-0.61205	-0.041659	-23.215	-2.4112	1100.2
666.10000	-197.72	-0.66493	-0.045339	-23.593	-2.4692	1100
671.10000	-201.17	-0.71749	-0.049013	-23.915	-2.5274	1100
676.10000	-205.2	-0.76794	-0.052554	-24.311	-2.5853	1100
681.10000	-205.73	-0.81925	-0.056167	-24.287	-2.6432	1100
686.10000	-206.28	-0.87183	-0.05988	-24.261	-2.7011	1099.9
691.10000	-203.56	-0.92541	-0.063679	-23.848	-2.7598	1099.9
696.10000	-200.19	-0.97722	-0.067365	-23.367	-2.8179	1100
701.10000	-197.39	-1.0297	-0.071113	-22.956	-2.8754	1100
706.10000	-196.44	-1.0828	-0.074925	-22.758	-2.9338	1100
711.10000	-196.51	-1.1362	-0.078769	-22.679	-2.9921	1100.1
716.10000	-197.26	-1.1902	-0.082672	-22.676	-3.0501	1100
721.10000	-197.45	-1.2412	-0.086369	-22.614	-3.1081	1100
726.10000	-198.6	-1.2935	-0.090182	-22.661	-3.1655	1100.1
731.10000	-201.56	-1.3464	-0.094047	-22.909	-3.2238	1100
736.10000	-202.65	-1.3992	-0.097923	-22.945	-3.282	1100
741.10000	-203.98	-1.4504	-0.1017	-23.008	-3.3396	1100
746.10000	-209.11	-1.5021	-0.10551	-23.496	-3.3976	1100.1
751.10000	-211.21	-1.5542	-0.10939	-23.638	-3.4551	1099.9
756.10000	-213.95	-1.606	-0.11324	-23.854	-3.5123	1100
761.10000	-216.43	-1.6575	-0.1171	-24.039	-3.5693	1100
766.10000	-216.68	-1.7079	-0.12088	-23.975	-3.6267	1100
771.10000	-218.63	-1.7588	-0.12471	-24.097	-3.6832	1100
776.10000	-220.79	-1.8108	-0.12865	-24.239	-3.7405	1100.1
781.10000	-221.13	-1.8612	-0.13248	-24.185	-3.7966	1099.9
786.10000	-223.24	-1.9127	-0.13641	-24.322	-3.8535	1099.9
791.10000	-223.3	-1.9622	-0.1402	-24.235	-3.9106	1100
796.10000	-225.05	-2.0137	-0.14415	-24.329	-3.9676	1100
801.10000	-226.09	-2.0653	-0.14813	-24.344	-4.0247	1100.3
806.10000	-227.02	-2.1171	-0.15215	-24.346	-4.0821	1100
811.10000	-227.48	-2.1702	-0.15629	-24.296	-4.1398	1100
816.10000	-228.86	-2.2216	-0.1603	-24.344	-4.1971	1099.9
821.10000	-229.76	-2.2751	-0.16449	-24.339	-4.2547	1099.9
826.10000	-229.75	-2.3274	-0.16861	-24.236	-4.3118	1100.1
831.10000	-229.68	-2.3799	-0.17276	-24.129	-4.3695	1100
836.10000	-228.63	-2.431	-0.17682	-23.923	-4.4276	1099.8
841.10000	-228.56	-2.4828	-0.18095	-23.815	-4.4854	1099.9
846.10000	-227.09	-2.5344	-0.18508	-23.565	-4.5426	1100
851.10000	-227.52	-2.5866	-0.18927	-23.509	-4.6005	1100
856.10000	-228.26	-2.6388	-0.19349	-23.489	-4.6581	1100.1
861.10000	-228.58	-2.6898	-0.19762	-23.423	-4.7162	1100.1
866.10000	-230.06	-2.742	-0.20187	-23.476	-4.7742	1099.9
871.10000	-232.41	-2.7955	-0.20624	-23.611	-4.8319	1099.9
876.10000	-233.82	-2.8474	-0.2105	-23.652	-4.8898	1100.1
881.10000	-235.48	-2.8984	-0.21471	-23.722	-4.9485	1100.1
886.10000	-237.57	-2.9491	-0.21891	-23.831	-5.006	1100.1
891.10000	-239.58	-3.0014	-0.22326	-23.93	-5.0641	1099.9
896.10000	-240.24	-3.0533	-0.2276	-23.892	-5.1219	1100
901.10000	-241.42	-3.1053	-0.23196	-23.904	-5.1796	1100
906.10000	-242.62	-3.1567	-0.23629	-23.92	-5.2379	1100
911.10000	-244.44	-3.2087	-0.24069	-23.993	-5.2962	1100
916.10000	-245.41	-3.2615	-0.24518	-23.981	-5.354	1100.1
921.10000	-246.67	-3.3144	-0.2497	-23.996	-5.4116	1099.8
926.10000	-247.77	-3.3678	-0.25427	-23.99	-5.4693	1100.1
931.10000	-247.29	-3.4187	-0.25866	-23.838	-5.5277	1100.1
936.10000	-247.17	-3.471	-0.26319	-23.723	-5.5859	1100
941.10000	-248.22	-3.5231	-0.26772	-23.716	-5.6431	1099.9
946.10000	-249.15	-3.5751	-0.27226	-23.698	-5.7007	1100
951.10000	-248.76	-3.6269	-0.2768	-23.552	-5.7587	1100
956.10000	-250.93	-3.6784	-0.28134	-23.649	-5.8164	1099.9
961.10000	-250.82	-3.7306	-0.28596	-23.53	-5.8737	1100
966.10000	-252.47	-3.7821	-0.29054	-23.576	-5.9307	1100
971.10000	-253.86	-3.8333	-0.29512	-23.599	-5.9871	1100
976.10000	-255.09	-3.8842	-0.29968	-23.602	-6.0447	1100
981.10000	-256.17	-3.9352	-0.30429	-23.597	-6.1014	1100
986.10000	-257.78	-3.987	-0.30897	-23.631	-6.1583	1099.9
991.10000	-258.48	-4.0403	-0.31383	-23.583	-6.215	1100.1
996.10000	-261.49	-4.0934	-0.31869	-23.742	-6.2725	1099.9
1001.10000	-261.26	-4.1447	-0.3234	-23.608	-6.3297	1099.9
1006.10000	-264.16	-4.1967	-0.3282	-23.756	-6.3872	1100
1011.10000	-264.64	-4.2491	-0.33306	-23.683	-6.4442	1100.1
1016.10000	-266.86	-4.3019	-0.33798	-23.765	-6.5019	1100
1021.10000	-267.01	-4.3537	-0.34284	-23.665	-6.5594	1100.2
1026.10000	-270.66	-4.4047	-0.34764	-23.872	-6.6168	1099.9
1031.10000	-271.49	-4.4586	-0.35274	-23.822	-6.6743	1100.1
1036.10000	-274.03	-4.5109	-0.35771	-23.928	-6.7321	1100
1041.10000	-275.87	-4.5636	-0.36276	-23.966	-6.7897	1100
1046.10000	-275.01	-4.6144	-0.36763	-23.776	-6.8477	1100
1051.10000	-277.32	-4.6662	-0.37263	-23.856	-6.9055	1100.1
1056.10000	-278.89	-4.7187	-0.37772	-23.87	-6.9629	1100
1061.10000	-281.36	-4.7702	-0.38274	-23.96	-7.0205	1100
1066.10000	-284.56	-4.8214	-0.38777	-24.111	-7.0787	1100
1071.10000	-284.32	-4.8714	-0.39269	-23.973	-7.1368	1099.8
1076.10000	-286.74	-4.9238	-0.39788	-24.052	-7.1947	1100
1081.10000	-289.89	-4.976	-0.40306	-24.189	-7.2531	1100
1086.10000	-290.26	-5.0283	-0.4083	-24.094	-7.311	1099.9
1091.10000	-289.05	-5.0795	-0.41346	-23.87	-7.3688	1100.2
1096.10000	-292.86	-5.1308	-0.41863	-24.06	-7.4271	1099.9
1101.10000	-295.51	-5.1832	-0.42396	-24.148	-7.4848	1100.2
1106.10000	-296.65	-5.2345	-0.42919	-24.115	-7.5422	1099.8
1111.10000	-299.21	-5.2865	-0.43453	-24.195	-7.6006	1100.1
1116.10000	-299.22	-5.3362	-0.43967	-24.072	-7.658	1099.9
1121.10000	-302.8	-5.3887	-0.44511	-24.226	-7.7164	1100.1
1126.10000	-304.49	-5.4405	-0.45052	-24.231	-7.7737	1100
1131.10000	-307.99	-5.4935	-0.45607	-24.371	-7.8318	1100.1
1136.10000	-310.24	-5.5453	-0.46153	-24.415	-7.8893	1099.7
1141.10000	-312.22	-5.595	-0.46681	-24.444	-7.9471	1100.1
1146.10000	-313.75	-5.6463	-0.47228	-24.429	-8.0044	1100.2
1151.10000	-317.07	-5.6976	-0.47779	-24.553	-8.0611	1100
1156.10000	-319.37	-5.7487	-0.48329	-24.594	-8.1183	1100
1161.10000	-319.22	-5.8007	-0.48892	-24.445	-8.1756	1100.1
1166.10000	-323.92	-5.8519	-0.4945	-24.666	-8.2325	1099.9
1171.10000	-325.61	-5.903	-0.50011	-24.658	-8.2892	1099.9
1176.10000	-330.25	-5.9553	-0.50588	-24.865	-8.347	1100.1
1181.10000	-332.75	-6.0064	-0.51154	-24.911	-8.4034	1100
1186.10000	-333.14	-6.0566	-0.51714	-24.802	-8.4608	1100.1
1191.10000	-337.43	-6.1079	-0.52289	-24.977	-8.5184	1099.8
1196.10000	-340.33	-6.1596	-0.52872	-25.045	-8.5754	1100.1
1201.10000	-343.03	-6.2116	-0.53463	-25.095	-8.6331	1100
1206.10000	-346.42	-6.2633	-0.54052	-25.194	-8.6905	1100
1211.10000	-348.39	-6.3128	-0.5462	-25.192	-8.7477	1100
1216.10000	-352.71	-6.3648	-0.55221	-25.353	-8.806	1099.6
1221.10000	-354.99	-6.4171	-0.55828	-25.364	-8.864	1100.1
1226.10000	-359.14	-6.4684	-0.56428	-25.507	-8.9212	1099.9
1231.10000	-361.75	-6.5203	-0.57037	-25.535	-8.9795	1100
1236.10000	-366.58	-6.5702	-0.57628	-25.723	-9.0368	1100
1241.10000	-369.97	-6.6209	-0.58231	-25.805	-9.0949	1100.1
1246.10000	-373.34	-6.6713	-0.58835	-25.884	-9.1526	1099.9
1251.10000	-378.12	-6.7229	-0.59456	-26.054	-9.2105	1100
1256.10000	-380.31	-6.7723	-0.60053	-26.048	-9.2686	1099.9
1261.10000	-384.33	-6.8237	-0.60681	-26.158	-9.3263	1100.1
1266.10000	-389.8	-6.8746	-0.61305	-26.365	-9.3844	1100
1271.10000	-392.48	-6.9263	-0.61944	-26.378	-9.4419	1100
1276.10000	-396.84	-6.9777	-0.62583	-26.501	-9.5	1100
1281.10000	-401.06	-7.0271	-0.63201	-26.618	-9.5579	1100
1286.10000	-405.55	-7.0788	-0.63851	-26.741	-9.6159	1099.9
1291.10000	-410.25	-7.1317	-0.64521	-26.87	-9.6744	1100
1296.10000	-414.91	-7.1826	-0.6517	-27	-9.7318	1100.1
1301.10000	-417.12	-7.2333	-0.65821	-26.967	-9.7898	1099.9
1306.10000	-423.47	-7.2834	-0.66468	-27.201	-9.8472	1100.1
1311.10000	-428.98	-7.3337	-0.67122	-27.375	-9.9047	1099.8
1316.10000	-434.09	-7.3851	-0.67794	-27.516	-9.962	1100
1321.10000	-438.51	-7.4355	-0.68459	-27.611	-10.019	1100
1326.10000	-442.56	-7.4841	-0.69104	-27.688	-10.077	1099.9
1331.10000	-446.72	-7.5339	-0.69769	-27.764	-10.133	1100.1
1336.10000	-453.9	-7.5863	-0.70471	-28.012	-10.191	1100
1341.10000	-460.55	-7.64	-0.71198	-28.216	-10.248	1099.9
1346.10000	-465.45	-7.6919	-0.71906	-28.316	-10.305	1100.1
1351.10000	-472.63	-7.7414	-0.72587	-28.556	-10.362	1100
1356.10000	-477.5	-7.7926	-0.73295	-28.648	-10.42	1100
1361.10000	-483.35	-7.8433	-0.74	-28.795	-10.477	1099.9
1366.10000	-489.83	-7.8941	-0.74713	-28.973	-10.534	1100.1
1371.10000	-492.83	-7.9445	-0.75424	-28.944	-10.592	1099.8
1376.10000	-499.46	-7.9941	-0.7613	-29.128	-10.649	1100.1
1381.10000	-508.65	-8.045	-0.76859	-29.449	-10.707	1100
1386.10000	-515.67	-8.0963	-0.776	-29.634	-10.764	1100.1
1391.10000	-522.66	-8.1475	-0.78343	-29.812	-10.822	1100
1396.10000	-531.42	-8.1977	-0.79079	-30.089	-10.88	1099.9
1401.10000	-540.74	-8.2483	-0.79825	-30.39	-10.937	1100
1406.10000	-549.3	-8.2998	-0.80592	-30.635	-10.995	1100
1411.10000	-558.7	-8.3507	-0.81353	-30.924	-11.053	1100.1
1416.10000	-564.45	-8.3987	-0.82079	-31.017	-11.111	1100.1
1421.10000	-572.43	-8.4465	-0.82804	-31.227	-11.168	1100.1
1426.10000	-583.72	-8.4968	-0.83575	-31.599	-11.227	1100
1431.10000	-595.62	-8.5468	-0.84348	-31.995	-11.285	1100
1436.10000	-605.25	-8.5976	-0.85138	-32.256	-11.343	1099.8
1441.10000	-613.2	-8.6466	-0.85907	-32.43	-11.4	1100.1
1446.10000	-626.49	-8.6974	-0.86709	-32.867	-11.458	1100
1451.10000	-636.61	-8.7476	-0.87508	-33.133	-11.516	1099.8
1456.10000	-645.52	-8.7979	-0.88317	-33.328	-11.574	1100.2
1461.10000	-658.85	-8.8486	-0.89138	-33.736	-11.632	1100.1
1466.10000	-669.35	-8.8968	-0.89924	-34.006	-11.689	1099.8
1471.10000	-682.11	-8.9469	-0.90747	-34.37	-11.747	1099.9
1476.10000	-695.38	-8.9971	-0.91581	-34.747	-11.805	1100.1
1481.10000	-708.67	-9.0469	-0.92415	-35.118	-11.862	1100.1
1482.56390	-721.86	-9.0764	-0.92911	-35.594	-11.896	1100
1483.06390	-650.63	-9.0804	-0.92979	-32.06	-11.895	1000.4
1483.56390	-561.38	-9.0787	-0.9295	-27.67	-11.89	704.41
1484.06390	-524.93	-9.077	-0.92921	-25.879	-11.887	482.37
1484.56390	-524.93	-9.077	-0.92921	-25.879	-11.887	482.37
1485.06390	-524.93	-9.077	-0.92921	-25.879	-11.887	482.37
1485.56390	-524.93	-9.077	-0.92921	-25.879	-11.887	482.37
1486.06390	-524.93	-9.077	-0.92921	-25.879	-11.887	482.37
1486.56390	-524.93	-9.077	-0.92921	-25.879	-11.887	482.37
1487.06390	-524.93	-9.077	-0.92921	-25.879	-11.887	482.37
1487.56390	-524.93	-9.077	-0.92921	-25.879	-11.887	482.37
1488.06390	-524.93	-9.077	-0.92921	-25.879	-11.887	482.37
1488.56390	-524.93	-9.077	-0.92921	-25.879	-11.887	482.37
1489.06390	-524.93	-9.077	-0.92921	-25.879	-11.887	482.37
1489.56390	-524.93	-9.077	-0.92921	-25.879	-11.887	482.37
1490.06390	-524.93	-9.077	-0.92921	-25.879	-11.887	482.37
1490.56390	-524.93	-9.077	-0.92921	-25.879	-11.887	482.37
1491.06390	-524.93	-9.077	-0.92921	-25.879	-11.887	482.37
1491.56390	-524.93	-9.077	-0.92921	-25.879	-11.887	482.37
1492.06390	-524.93	-9.077	-0.92921	-25.879	-11.887	482.37
1492.56390	-524.93	-9.077	-0.92921	-25.879	-11.887	482.37
1493.06390	-524.93	-9.077	-0.92921	-25.879	-11.887	482.37
1493.56390	-524.93	-9.077	-0.92921	-25.879	-11.887	482.37
1494.06390	-524.93	-9.077	-0.92921	-25.879	-11.887	482.37
1494.56390	-524.93	-9.077	-0.92921	-25.879	-11.887	482.37
1495.06390	-524.93	-9.077	-0.92921	-25.879	-11.887	482.37
1495.56390	-524.93	-9.077	-0.92921	-25.879	-11.887	482.37
1496.06390	-524.93	-9.077	-0.92921	-25.879	-11.887	482.37
1496.56390	-524.93	-9.077	-0.92921	-25.879	-11.887	482.37
1497.06390	-524.93	-9.077	-0.92921	-25.879	-11.887	482.37
1497.56390	-524.93	-9.077	-0.92921	-25.879	-11.887	482.37
1498.06390	-524.93	-9.077	-0.92921	-25.879	-11.887	482.37
1498.56390	-524.93	-9.077	-0.92921	-25.879	-11.887	482.37
1499.06390	-524.93	-9.077	-0.92921	-25.879	-11.887	482.37
1499.56390	-524.93	-9.077	-0.92921	-25.879	-11.887	482.37
1500.06390	-524.93	-9.077	-0.92921	-25.879	-11.887	482.37
1500.56390	-524.93	-9.077	-0.92921	-25.879	-11.887	482.37
1501.06390	-524.93	-9.077	-0.92921	-25.879	-11.887	482.37
1501.56390	-524.93	-9.077	-0.92921	-25.879	-11.887	482.37
1502.06390	-524.93	-9.077	-0.92921	-25.879	-11.887	482.37
1502.56390	-524.93	-9.077	-0.92921	-25.879	-11.887	482.37
1503.06390	-524.93	-9.077	-0.92921	-25.879	-11.887	482.37
1503.56390	-524.93	-9.077	-0.92921	-25.879	-11.887	482.37
1504.06390	-524.93	-9.077	-0.92921	-25.879	-11.887	482.37
1504.56390	-524.93	-9.077	-0.92921	-25.879	-11.887	482.37
1505.06390	-524.93	-9.077	-0.92921	-25.879	-11.887	482.37
1505.56390	-524.93	-9.077	-0.92921	-25.879	-11.887	482.37
1506.06390	-524.93	-9.077	-0.92921	-25.879	-11.887	482.37
1506.56390	-524.93	-9.077	-0.92921	-25.879	-11.887	482.37
1507.06390	-524.93	-9.077	-0.92921	-25.879	-11.887	482.37
1507.56390	-524.93	-9.077	-0.92921	-25.879	-11.887	482.37
1508.06390	-524.93	-9.077	-0.92921	-25.879	-11.887	482.37
1508.56390	-524.93	-9.077	-0.92921	-25.879	-11.887	482.37
1509.06390	-524.93	-9.077	-0.92921	-25.879	-11.887	482.37
1509.56390	-524.93	-9.077	-0.92921	-25.879	-11.887	482.37
1510.06390	-524.93	-9.077	-0.92921	-25.879	-11.887	482.37
1510.56390	-524.93	-9.077	-0.92921	-25.879	-11.887	482.37
1511.06390	-524.93	-9.077	-0.92921	-25.879	-11.887	482.37
1511.56390	-524.93	-9.077	-0.92921	-25.879	-11.887	482.37
1512.06390	-524.93	-9.077	-0.92921	-25.879	-11.887	482.37
1512.56390	-524.93	-9.077	-0.92921	-25.879	-11.887	482.37
1513.06390	-524.93	-9.077	-0.92921	-25.879	-11.887	482.37
1513.56390	-524.93	-9.077	-0.92921	-25.879	-11.887	482.37
1514.06390	-524.93	-9.077	-0.92921	-25.879	-11.887	482.37
1514.56390	-524.93	-9.077	-0.92921	-25.879	-11.887	482.37
1515.06390	-524.93	-9.077	-0.92921	-25.879	-11.887	482.37
1515.56390	-524.93	-9.077	-0.92921	-25.879	-11.887	482.37
1516.06390	-524.93	-9.077	-0.92921	-25.879	-11.887	482.37
1516.56390	-524.93	-9.077	-0.92921	-25.879	-11.887	482.37
1517.06390	-524.93	-9.077	-0.92921	-25.879	-11.887	482.37
1517.56390	-524.93	-9.077	-0.92921	-25.879	-11.887	482.37
1518.06390	-524.93	-9.077	-0.92921	-25.879	-11.887	482.37
1518.56390	-524.93	-9.077	-0.92921	-25.879	-11.887	482.37
1519.06390	-524.93	-9.077	-0.92921	-25.879	-11.887	482.37
1519.56390	-524.93	-9.077	-0.92921	-25.879	-11.887	482.37
1520.06390	-524.93	-9.077	-0.92921	-25.879	-11.887	482.37
1520.56390	-524.93	-9.077	-0.92921	-25.879	-11.887	482.37
1521.06390	-524.93	-9.077	-0.92921	-25.879	-11.887	482.37
1521.56390	-524.93	-9.077	-0.92921	-25.879	-11.887	482.37
1522.06390	-524.93	-9.077	-0.92921	-25.879	-11.887	482.37
1522.56390	-524.93	-9.077	-0.92921	-25.879	-11.887	482.37
1523.06390	-524.93	-9.077	-0.92921	-25.879	-11.887	482.37
1523.56390	-524.93	-9.077	-0.92921	-25.879	-11.887	482.37
1524.06390	-524.93	-9.077	-0.92921	-25.879	-11.887	482.37
1524.56390	-524.93	-9.077	-0.92921	-25.879	-11.887	482.37
1525.06390	-524.93	-9.077	-0.92921	-25.879	-11.887	482.37
1525.56390	-524.93	-9.077	-0.92921	-25.879	-11.887	482.37
1526.06390	-524.93	-9.077	-0.92921	-25.879	-11.887	482.37
1526.56390	-524.93	-9.077	-0.92921	-25.879	-11.887	482.37
1527.06390	-524.93	-9.077	-0.92921	-25.879	-11.887	482.37
1527.56390	-524.93	-9.077	-0.92921	-25.879	-11.887	482.37
1528.06390	-524.93	-9.077	-0.92921	-25.879	-11.887	482.37
1528.56390	-524.93	-9.077	-0.92921	-25.879	-11.887	482.37
1529.06390	-524.93	-9.077	-0.92921	-25.879	-11.887	482.37
1529.56390	-524.93	-9.077	-0.92921	-25.879	-11.887	482.37
1530.06390	-524.93	-9.077	-0.92921	-25.879	-11.887	482.37
1530.56390	-524.93	-9.077	-0.92921	-25.879	-11.887	482.37
1531.06390	-524.93	-9.077	-0.92921	-25.879	-11.887	482.37
1531.56390	-524.93	-9.077	-0.92921	-25.879	-11.887	482.37
1532.06390	-524.93	-9.077	-0.92921	-25.879	-11.887	482.37
1532.56390	-524.93	-9.077	-0.92921	-25.879	-11.887	482.37
1533.06390	-524.93	-9.077	-0.92921	-25.879	-11.887	482.37
1533.56390	-524.93	-9.077	-0.92921	-25.879	-11.887	482.37
1534.06390	-524.93	-9.077	-0.92921	-25.879	-11.887	482.37
1534.56390	-524.93	-9.077	-0.92921	-25.879	-11.887	482.37
1535.06390	-524.93	-9.077	-0.92921	-25.879	-11.887	482.37
1535.56390	-524.93	-9.077	-0.92921	-25.879	-11.887	482.37
1536.06390	-524.93	-9.077	-0.92921	-25.879	-11.887	482.37
1536.56390	-524.93	-9.077	-0.92921	-25.879	-11.887	482.37
1537.06390	-524.93	-9.077	-0.92921	-25.879	-11.887	482.37
1537.56390	-524.93	-9.077	-0.92921	-25.879	-11.887	482.37
1538.06390	-524.93	-9.077	-0.92921	-25.879	-11.887	482.37
1538.56390	-524.93	-9.077	-0.92921	-25.879	-11.887	482.37
1539.06390	-524.93	-9.077	-0.92921	-25.879	-11.887	482.37
1539.56390	-524.93	-9.077	-0.92921	-25.879	-11.887	482.37
1540.06390	-524.93	-9.077	-0.92921	-25.879	-11.887	482.37
1540.56390	-524.93	-9.077	-0.92921	-25.879	-11.887	482.37
1541.06390	-524.93	-9.077	-0.92921	-25.879	-11.887	482.37
1541.56390	-524.93	-9.077	-0.92921	-25.879	-11.887	482.37
1542.06390	-524.93	-9.077	-0.92921	-25.879	-11.887	482.37
1542.56390	-524.93	-9.077	-0.92921	-25.879	-11.887	482.37
1543.06390	-524.93	-9.077	-0.92921	-25.879	-11.887	482.37
1543.56390	-524.93	-9.077	-0.92921	-25.879	-11.887	482.37
1544.06390	-524.93	-9.077	-0.92921	-25.879	-11.887	482.37
1544.56390	-524.93	-9.077	-0.92921	-25.879	-11.887	482.37
1545.06390	-524.93	-9.077	-0.92921	-25.879	-11.887	482.37
1545.56390	-524.93	-9.077	-0.92921	-25.879	-11.887	482.37
1546.06390	-524.93	-9.077	-0.92921	-25.879	-11.887	482.37
1546.56390	-524.93	-9.077	-0.92921	-25.879	-11.887	482.37
1547.06390	-524.93	-9.077	-0.92921	-25.879	-11.887	482.37
1547.56390	-524.93	-9.077	-0.92921	-25.879	-11.887	482.37
1548.06390	-524.93	-9.077	-0.92921	-25.879	-11.887	482.37
1548.56390	-524.93	-9.077	-0.92921	-25.879	-11.887	482.37
1549.06390	-524.93	-9.077	-0.92921	-25.879	-11.887	482.37
1549.56390	-524.93	-9.077	-0.92921	-25.879	-11.887	482.37
1550.06390	-524.93	-9.077	-0.92921	-25.879	-11.887	482.37
1550.56390	-524.93	-9.077	-0.92921	-25.879	-11.887	482.37
1551.06390	-524.93	-9.077	-0.92921	-25.879	-11.887	482.37
1551.56390	-524.93	-9.077	-0.92921	-25.879	-11.887	482.37
1552.06390	-524.93	-9.077	-0.92921	-25.879	-11.887	482.37
1552.56390	-524.93	-9.077	-0.92921	-25.879	-11.887	482.37
1553.06390	-524.93	-9.077	-0.92921	-25.879	-11.887	482.37
1553.56390	-524.93	-9.077	-0.92921	-25.879	-11.887	482.37
1554.06390	-524.93	-9.077	-0.92921	-25.879	-11.887	482.37
1554.56390	-524.93	-9.077	-0.92921	-25.879	-11.887	482.37
1555.06390	-524.93	-9.077	-0.92921	-25.879	-11.887	482.37
1555.56390	-524.93	-9.077	-0.92921	-25.879	-11.887	482.37
1556.06390	-524.93	-9.077	-0.92921	-25.879	-11.887	482.37
1556.56390	-524.93	-9.077	-0.92921	-25.879	-11.887	482.37
1557.06390	-524.93	-9.077	-0.92921	-25.879	-11.887	482.37
1557.56390	-524.93	-9.077	-0.92921	-25.879	-11.887	482.37
1558.06390	-524.93	-9.077	-0.92921	-25.879	-11.887	482.37
1558.56390	-524.93	-9.077	-0.92921	-25.879	-11.887	482.37
1559.06390	-524.93	-9.077	-0.92921	-25.879	-11.887	482.37
1559.56390	-524.93	-9.077	-0.92921	-25.879	-11.887	482.37
1560.06390	-524.93	-9.077	-0.92921	-25.879	-11.887	482.37
1560.56390	-524.93	-9.077	-0.92921	-25.879	-11.887	482.37
1561.06390	-524.93	-9.077	-0.92921	-25.879	-11.887	482.37
1561.56390	-524.93	-9.077	-0.92921	-25.879	-11.887	482.37
1562.06390	-524.93	-9.077	-0.92921	-25.879	-11.887	482.37
1562.56390	-524.93	-9.077	-0.92921	-25.879	-11.887	482.37
1563.06390	-524.93	-9.077	-0.92921	-25.879	-11.887	482.37
1563.56390	-524.93	-9.077	-0.92921	-25.879	-11.887	482.37
1564.06390	-524.93	-9.077	-0.92921	-25.879	-11.887	482.37
1564.56390	-524.93	-9.077	-0.92921	-25.879	-11.887	482.37
1565.06390	-524.93	-9.077	-0.92921	-25.879	-11.887	482.37
1565.56390	-524.93	-9.077	-0.92921	-25.879	-11.887	482.37
1566.06390	-524.93	-9.077	-0.92921	-25.879	-11.887	482.37
1566.56390	-524.93	-9.077	-0.92921	-25.879	-11.887	482.37
1567.06390	-524.93	-9.077	-0.92921	-25.879	-11.887	482.37
1567.56390	-524.93	-9.077	-0.92921	-25.879	-11.887	482.37
1568.06390	-524.93	-9.077	-0.92921	-25.879	-11.887	482.37
1568.56390	-524.93	-9.077	-0.92921	-25.879	-11.887	482.37
1569.06390	-524.93	-9.077	-0.92921	-25.879	-11.887	482.37
1569.56390	-524.93	-9.077	-0.92921	-25.879	-11.887	482.37
1570.06390	-524.93	-9.077	-0.92921	-25.879	-11.887	482.37
1570.56390	-524.93	-9.077	-0.92921	-25.879	-11.887	482.37
1571.06390	-524.93	-9.077	-0.92921	-25.879	-11.887	482.37
1571.56390	-524.93	-9.077	-0.92921	-25.879	-11.887	482.37
1572.06390	-524.93	-9.077	-0.92921	-25.879	-11.887	482.37
1572.56390	-524.93	-9.077	-0.92921	-25.879	-11.887	482.37
1573.06390	-524.93	-9.077	-0.92921	-25.879	-11.887	482.37
1573.56390	-524.93	-9.077	-0.92921	-25.879	-11.887	482.37
1574.06390	-524.93	-9.077	-0.92921	-25.879	-11.887	482.37
1574.56390	-524.93	-9.077	-0.92921	-25.879	-11.887	482.37
1575.06390	-524.93	-9.077	-0.92921	-25.879	-11.887	482.37
1575.56390	-524.93	-9.077	-0.92921	-25.879	-11.887	482.37
1576.06390	-524.93	-9.077	-0.92921	-25.879	-11.887	482.37
1576.56390	-524.93	-9.077	-0.92921	-25.879	-11.887	482.37
1577.06390	-524.93	-9.077	-0.92921	-25.879	-11.887	482.37
1577.56390	-524.93	-9.077	-0.92921	-25.879	-11.887	482.37
1578.06390	-524.93	-9.077	-0.92921	-25.879	-11.887	482.37
1578.56390	-524.93	-9.077	-0.92921	-25.879	-11.887	482.37
1579.06390	-524.93	-9.077	-0.92921	-25.879	-11.887	482.37
1579.56390	-524.93	-9.077	-0.92921	-25.879	-11.887	482.37
1580.06390	-524.93	-9.077	-0.92921	-25.879	-11.887	482.37
1580.56390	-524.93	-9.077	-0.92921	-25.879	-11.887	482.37
1581.06390	-524.93	-9.077	-0.92921	-25.879	-11.887	482.37
1581.56390	-524.93	-9.077	-0.92921	-25.879	-11.887	482.37
1582.06390	-524.93	-9.077	-0.92921	-25.879	-11.887	482.37
1582.56390	-524.93	-9.077	-0.92921	-25.879	-11.887	482.37
1583.06390	-524.93	-9.077	-0.92921	-25.879	-11.887	482.37
1583.56390	-524.93	-9.077	-0.92921	-25.879	-11.887	482.37
1584.06390	-524.93	-9.077	-0.92921	-25.879	-11.887	482.37
1584.56390	-524.93	-9.077	-0.92921	-25.879	-11.887	482.37
1585.06390	-524.93	-9.077	-0.92921	-25.879	-11.887	482.37
1585.56390	-524.93	-9.077	-0.92921	-25.879	-11.887	482.37
1586.06390	-524.93	-9.077	-0.92921	-25.879	-11.887	482.37
1586.56390	-524.93	-9.077	-0.92921	-25.879	-11.887	482.37
1587.06390	-524.93	-9.077	-0.92921	-25.879	-11.887	482.37
1587.56390	-524.93	-9.077	-0.92921	-25.879	-11.887	482.37
1588.06390	-524.93	-9.077	-0.92921	-25.879	-11.887	482.37
1588.56390	-524.93	-9.077	-0.92921	-25.879	-11.887	482.37
1589.06390	-524.93	-9.077	-0.92921	-25.879	-11.887	482.37
1589.56390	-524.93	-9.077	-0.92921	-25.879	-11.887	482.37
1590.06390	-524.93	-9.077	-0.92921	-25.879	-11.887	482.37
1590.56390	-524.93	-9.077	-0.92921	-25.879	-11.887	482.37
1591.06390	-524.93	-9.077	-0.92921	-25.879	-11.887	482.37
1591.56390	-524.93	-9.077	-0.92921	-25.879	-11.887	482.37
1592.06390	-524.93	-9.077	-0.92921	-25.879	-11.887	482.37
1592.56390	-524.93	-9.077	-0.92921	-25.879	-11.887	482.37
1593.06390	-524.93	-9.077	-0.92921	-25.879	-11.887	482.37
1593.56390	-524.93	-9.077	-0.92921	-25.879	-11.887	482.37
1594.06390	-524.93	-9.077	-0.92921	-25.879	-11.887	482.37
1594.56390	-524.93	-9.077	-0.92921	-25.879	-11.887	482.37
1595.06390	-524.93	-9.077	-0.92921	-25.879	-11.887	482.37
1595.56390	-524.93	-9.077	-0.92921	-25.879	-11.887	482.37
1596.06390	-524.93	-9.077	-0.92921	-25.879	-11.887	482.37
1596.56390	-524.93	-9.077	-0.92921	-25.879	-11.887	482.37
1597.06390	-524.93	-9.077	-0.92921	-25.879	-11.887	482.37
1597.56390	-524.93	-9.077	-0.92921	-25.879	-11.887	482.37
1598.06390	-524.93	-9.077	-0.92921	-25.879	-11.887	482.37
1598.56390	-524.93	-9.077	-0.92921	-25.879	-11.887	482.37
1599.06390	-524.93	-9.077	-0.92921	-25.879	-11.887	482.37
1599.56390	-524.93	-9.077	-0.92921	-25.879	-11.887	482.37
1600.06390	-524.93	-9.077	-0.92921	-25.879	-11.887	482.37
1600.56390	-524.93	-9.077	-0.92921	-25.879	-11.887	482.37
1601.06390	-524.93	-9.077	-0.92921	-25.879	-11.887	482.37
1601.56390	-524.93	-9.077	-0.92921	-25.879	-11.887	482.37
1602.06390	-524.93	-9.077	-0.92921	-25.879	-11.887	482.37
1602.56390	-524.93	-9.077	-0.92921	-25.879	-11.887	482.37
1603.06390	-524.93	-9.077	-0.92921	-25.879	-11.887	482.37
1603.56390	-524.93	-9.077	-0.92921	-25.879	-11.887	482.37
1604.06390	-524.93	-9.077	-0.92921	-25.879	-11.887	482.37
1604.56390	-524.93	-9.077	-0.92921	-25.879	-11.887	482.37
1605.06390	-524.93	-9.077	-0.92921	-25.879	-11.887	482.37
1605.56390	-524.93	-9.077	-0.92921	-25.879	-11.887	482.37
1606.06390	-524.93	-9.077	-0.92921	-25.879	-11.887	482.37
1606.56390	-524.93	-9.077	-0.92921	-25.879	-11.887	482.37
1607.06390	-524.93	-9.077	-0.92921	-25.879	-11.887	482.37
1607.56390	-524.93	-9.077	-0.92921	-25.879	-11.887	482.37
1608.06390	-524.93	-9.077	-0.92921	-25.879	-11.887	482.37
1608.56390	-524.93	-9.077	-0.92921	-25.879	-11.887	482.37
1609.06390	-524.93	-9.077	-0.92921	-25.879	-11.887	482.37
1609.56390	-524.93	-9.077	-0.92921	-25.879	-11.887	482.37
1610.06390	-524.93	-9.077	-0.92921	-25.879	-11.887	482.37
1610.56390	-524.93	-9.077	-0.92921	-25.879	-11.887	482.37
1611.06390	-524.93	-9.077	-0.92921	-25.879	-11.887	482.37
1611.56390	-524.93	-9.077	-0.92921	-25.879	-11.887	482.37
1612.06390	-524.93	-9.077	-0.92921	-25.879	-11.887	482.37
1612.56390	-524.93	-9.077	-0.92921	-25.879	-11.887	482.37
1613.06390	-524.93	-9.077	-0.92921	-25.879	-11.887	482.37
1613.56390	-524.93	-9.077	-0.92921	-25.879	-11.887	482.37
1614.06390	-524.93	-9.077	-0.92921	-25.879	-11.887	482.37
1614.56390	-524.93	-9.077	-0.92921	-25.879	-11.887	482.37
1615.06390	-524.93	-9.077	-0.92921	-25.879	-11.887	482.37
1615.56390	-524.93	-9.077	-0.92921	-25.879	-11.887	482.37
1616.06390	-524.93	-9.077	-0.92921	-25.879	-11.887	482.37
1616.56390	-524.93	-9.077	-0.92921	-25.879	-11.887	482.37
1617.06390	-524.93	-9.077	-0.92921	-25.879	-11.887	482.37
1617.56390	-524.93	-9.077	-0.92921	-25.879	-11.887	482.37
1618.06390	-524.93	-9.077	-0.92921	-25.879	-11.887	482.37
1618.56390	-524.93	-9.077	-0.92921	-25.879	-11.887	482.37
1619.06390	-524.93	-9.077	-0.92921	-25.879	-11.887	482.37
1619.56390	-524.93	-9.077	-0.92921	-25.879	-11.887	482.37
1620.06390	-524.93	-9.077	-0.92921	-25.879	-11.887	482.37
1620.56390	-524.93	-9.077	-0.92921	-25.879	-11.887	482.37
1621.06390	-524.93	-9.077	-0.92921	-25.879	-11.887	482.37
1621.56390	-524.93	-9.077	-0.92921	-25.879	-11.887	482.37
1622.06390	-524.93	-9.077	-0.92921	-25.879	-11.887	482.37
1622.56390	-524.93	-9.077	-0.92921	-25.879	-11.887	482.37
1623.06390	-524.93	-9.077	-0.92921	-25.879	-11.887	482.37
1623.56390	-524.93	-9.077	-0.92921	-25.879	-11.887	482.37
1624.06390	-524.93	-9.077	-0.92921	-25.879	-11.887	482.37
1624.56390	-524.93	-9.077	-0.92921	-25.879	-11.887	482.37
1625.06390	-524.93	-9.077	-0.92921	-25.879	-11.887	482.37
1625.56390	-524.93	-9.077	-0.92921	-25.879	-11.887	482.37
1626.06390	-524.93	-9.077	-0.92921	-25.879	-11.887	482.37
1626.56390	-524.93	-9.077	-0.92921	-25.879	-11.887	482.37
1627.06390	-524.93	-9.077	-0.92921	-25.879	-11.887	482.37
1627.56390	-524.93	-9.077	-0.92921	-25.879	-11.887	482.37
1628.06390	-524.93	-9.077	-0.92921	-25.879	-11.887	482.37
1628.56390	-524.93	-9.077	-0.92921	-25.879	-11.887	482.37
1629.06390	-524.93	-9.077	-0.92921	-25.879	-11.887	482.37
1629.56390	-524.93	-9.077	-0.92921	-25.879	-11.887	482.37
1630.06390	-524.93	-9.077	-0.92921	-25.879	-11.887	482.37
1630.56390	-524.93	-9.077	-0.92921	-25.879	-11.887	482.37
1631.06390	-524.93	-9.077	-0.92921	-25.879	-11.887	482.37
1631.56390	-524.93	-9.077	-0.92921	-25.879	-11.887	482.37
1632.06390	-524.93	-9.077	-0.92921	-25.879	-11.887	482.37
1632.56390	-524.93	-9.077	-0.92921	-25.879	-11.887	482.37
1633.06390	-524.93	-9.077	-0.92921	-25.879	-11.887	482.37
1633.56390	-524.93	-9.077	-0.92921	-25.879	-11.887	482.37
1634.06390	-524.93	-9.077	-0.92921	-25.879	-11.887	482.37
1634.56390	-524.93	-9.077	-0.92921	-25.879	-11.887	482.37
1635.06390	-524.93	-9.077	-0.92921	-25.879	-11.887	482.37
1635.56390	-524.93	-9.077	-0.92921	-25.879	-11.887	482.37
1636.06390	-524.93	-9.077	-0.92921	-25.879	-11.887	482.37
1636.56390	-524.93	-9.077	-0.92921	-25.879	-11.887	482.37
1637.06390	-524.93	-9.077	-0.92921	-25.879	-11.887	482.37
1637.56390	-524.93	-9.077	-0.92921	-25.879	-11.887	482.37
1638.06390	-524.93	-9.077	-0.92921	-25.879	-11.887	482.37
1638.56390	-524.93	-9.077	-0.92921	-25.879	-11.887	482.37
1639.06390	-524.93	-9.077	-0.92921	-25.879	-11.887	482.37
1639.56390	-524.93	-9.077	-0.92921	-25.879	-11.887	482.37
1640.06390	-524.93	-9.077	-0.92921	-25.879	-11.887	482.37
1640.56390	-524.93	-9.077	-0.92921	-25.879	-11.887	482.37
1641.06390	-524.93	-9.077	-0.92921	-25.879	-11.887	482.37
1641.56390	-524.93	-9.077	-0.92921	-25.879	-11.887	482.37
1642.06390	-524.93	-9.077	-0.92921	-25.879	-11.887	482.37
1642.56390	-524.93	-9.077	-0.92921	-25.879	-11.887	482.37
